Ah_balance (normalized)	Ah_balance (mAh)	Voltage - fit (V)	Voltage -  interpolate (V)	dQ/dV (1/V)	Temperature (°C)	Temperature - diff (°C)	Current (C)	R_DC 0ms (mOhm)	R_DC 50ms (mOhm)	R_DC 50 ms PEC (mOhm)
-0.0079	-505.71	4.2000	4.1797	0.7515	24.60	0.25	-0.237	0.040	0.412	
-0.0071	-457.20	4.1990	4.1988	0.7681	24.59	0.24	0.050			
-0.0064	-407.38	4.1980	4.1979	0.7890	24.59	0.24	0.050			
-0.0056	-355.84	4.1970	4.1970	0.8068	24.58	0.23	0.050			
-0.0047	-303.32	4.1960	4.1960	0.8175	24.56	0.21	0.050			
-0.0039	-250.29	4.1950	4.1950	0.8247	24.55	0.20	0.050			
-0.0031	-197.33	4.1940	4.1939	0.8299	24.54	0.19	0.050			
-0.0022	-143.51	4.1930	4.1929	0.8348	24.52	0.17	0.050			
-0.0014	-89.18	4.1920	4.1919	0.8381	24.50	0.15	0.050			
-0.0005	-34.43	4.1910	4.1910	0.8391	24.48	0.13	0.050			
0.0003	19.85	4.1900	4.1901	0.8389	24.46	0.11	0.050	-0.004	0.252	
0.0012	75.08	4.1890	4.1891	0.8398	24.45	0.10	0.050			
0.0020	129.34	4.1880	4.1881	0.8388	24.44	0.09	0.050			
0.0029	183.71	4.1870	4.1870	0.8379	24.41	0.06	0.050			
0.0037	237.96	4.1860	4.1860	0.8355	24.39	0.04	0.050			
0.0046	291.67	4.1850	4.1850	0.8327	24.38	0.03	0.050			
0.0054	345.09	4.1840	4.1841	0.8284	24.36	0.01	0.050			
0.0062	398.41	4.1830	4.1831	0.8255	24.33	-0.02	0.050			
0.0070	450.97	4.1820	4.1821	0.8198	24.31	-0.04	0.050			
0.0079	502.65	4.1810	4.1809	0.8150	24.30	-0.05	0.050			
0.0087	554.41	4.1800	4.1800	0.8117	24.29	-0.06	0.050			
0.0095	606.00	4.1790	4.1790	0.8078	24.28	-0.07	0.050			
0.0103	657.31	4.1780	4.1779	0.8049	24.26	-0.09	0.050			
0.0111	708.33	4.1770	4.1771	0.8028	24.25	-0.10	0.050			
0.0119	759.13	4.1760	4.1761	0.8023	24.25	-0.10	0.050			
0.0126	808.88	4.1750	4.1749	0.8008	24.25	-0.10	0.050			
0.0134	859.35	4.1740	4.1741	0.8008	24.25	-0.10	0.050			
0.0142	909.53	4.1730	4.1731	0.8038	24.25	-0.10	0.050			
0.0150	960.73	4.1720	4.1719	0.8074	24.25	-0.10	0.050			
0.0158	1012.74	4.1710	4.1711	0.8101	24.26	-0.09	0.050			
0.0166	1064.55	4.1700	4.1700	0.8127	24.27	-0.08	0.050			
0.0174	1115.85	4.1690	4.1690	0.8142	24.28	-0.07	0.050			
0.0183	1168.13	4.1680	4.1678	0.8164	24.30	-0.05	0.050			
0.0191	1221.10	4.1670	4.1669	0.8179	24.31	-0.04	0.050			
0.0199	1274.10	4.1660	4.1660	0.8202	24.32	-0.03	0.050	-0.010	0.270	
0.0207	1327.37	4.1650	4.1650	0.8221	24.32	-0.03	0.050			
0.0216	1380.53	4.1640	4.1640	0.8227	24.35	0.00	0.050			
0.0224	1433.67	4.1630	4.1631	0.8242	24.35	0.00	0.050			
0.0232	1486.49	4.1620	4.1621	0.8256	24.37	0.02	0.050			
0.0241	1540.21	4.1610	4.1609	0.8266	24.37	0.02	0.050			
0.0249	1593.59	4.1600	4.1600	0.8270	24.37	0.02	0.050			
0.0257	1646.48	4.1590	4.1591	0.8262	24.37	0.02	0.050			
0.0266	1699.58	4.1580	4.1580	0.8260	24.37	0.02	0.050			
0.0274	1751.54	4.1570	4.1570	0.8261	24.35	0.00	0.050			
0.0282	1804.02	4.1560	4.1560	0.8252	24.35	-0.00	0.050			
0.0290	1855.63	4.1550	4.1550	0.8275	24.32	-0.03	0.050			
0.0298	1908.16	4.1540	4.1539	0.8292	24.31	-0.04	0.050			
0.0306	1960.51	4.1530	4.1529	0.8291	24.30	-0.05	0.050			
0.0315	2014.25	4.1520	4.1521	0.8305	24.29	-0.06	0.050			
0.0323	2067.69	4.1510	4.1511	0.8316	24.27	-0.08	0.050			
0.0331	2121.50	4.1500	4.1499	0.8317	24.27	-0.08	0.050			
0.0340	2175.76	4.1490	4.1489	0.8298	24.25	-0.10	0.050			
0.0348	2229.72	4.1480	4.1478	0.8276	24.23	-0.12	0.050			
0.0357	2284.80	4.1470	4.1470	0.8238	24.23	-0.12	0.050			
0.0365	2338.00	4.1460	4.1460	0.8193	24.22	-0.13	0.050			
0.0374	2391.01	4.1450	4.1449	0.8149	24.21	-0.14	0.050			
0.0382	2443.59	4.1440	4.1442	0.8105	24.19	-0.16	0.050			
0.0390	2495.09	4.1430	4.1430	0.8070	24.19	-0.16	0.050			
0.0398	2546.01	4.1420	4.1422	0.8026	24.19	-0.16	0.050			
0.0406	2597.13	4.1410	4.1411	0.8003	24.19	-0.16	0.050	0.081	0.390	
0.0414	2646.63	4.1400	4.1401	0.8013	24.21	-0.14	0.050			
0.0421	2696.34	4.1390	4.1389	0.7997	24.21	-0.14	0.050			
0.0429	2746.36	4.1380	4.1380	0.7991	24.21	-0.14	0.050			
0.0437	2796.18	4.1370	4.1369	0.7951	24.21	-0.14	0.050			
0.0445	2847.21	4.1360	4.1360	0.7929	24.21	-0.14	0.050			
0.0453	2897.05	4.1350	4.1349	0.7892	24.22	-0.13	0.050			
0.0461	2947.55	4.1340	4.1339	0.7890	24.23	-0.12	0.050			
0.0468	2998.26	4.1330	4.1329	0.7914	24.22	-0.13	0.050			
0.0476	3048.98	4.1320	4.1321	0.7944	24.23	-0.12	0.050			
0.0484	3100.22	4.1310	4.1311	0.7977	24.23	-0.12	0.050			
0.0492	3150.77	4.1300	4.1302	0.8028	24.23	-0.12	0.050			
0.0500	3202.55	4.1290	4.1293	0.8076	24.23	-0.12	0.050			
0.0508	3254.40	4.1280	4.1283	0.8128	24.24	-0.11	0.050			
0.0517	3306.32	4.1270	4.1268	0.8177	24.25	-0.10	0.050			
0.0525	3358.48	4.1260	4.1259	0.8199	24.27	-0.08	0.050			
0.0533	3411.41	4.1250	4.1248	0.8218	24.27	-0.08	0.050			
0.0541	3463.81	4.1240	4.1238	0.8242	24.29	-0.06	0.050			
0.0549	3516.00	4.1230	4.1229	0.8253	24.30	-0.05	0.050			
0.0558	3568.41	4.1220	4.1220	0.8282	24.31	-0.04	0.050			
0.0566	3621.13	4.1210	4.1209	0.8319	24.32	-0.03	0.050			
0.0574	3674.00	4.1200	4.1201	0.8354	24.33	-0.02	0.050			
0.0582	3727.78	4.1190	4.1192	0.8413	24.35	0.00	0.050			
0.0591	3782.66	4.1180	4.1180	0.8460	24.35	0.00	0.050			
0.0600	3838.35	4.1170	4.1170	0.8504	24.35	0.00	0.050	0.005	0.393	
0.0609	3895.15	4.1160	4.1159	0.8528	24.35	-0.00	0.050			
0.0617	3950.31	4.1150	4.1149	0.8528	24.33	-0.02	0.050			
0.0626	4005.48	4.1140	4.1138	0.8514	24.32	-0.03	0.050			
0.0634	4060.30	4.1130	4.1129	0.8481	24.32	-0.03	0.050			
0.0643	4114.61	4.1120	4.1120	0.8453	24.29	-0.06	0.050			
0.0651	4168.67	4.1110	4.1110	0.8433	24.27	-0.08	0.050			
0.0660	4222.22	4.1100	4.1101	0.8409	24.26	-0.09	0.050			
0.0668	4276.39	4.1090	4.1091	0.8387	24.24	-0.11	0.050			
0.0677	4330.15	4.1080	4.1080	0.8368	24.22	-0.13	0.050			
0.0685	4383.99	4.1070	4.1070	0.8336	24.20	-0.15	0.050			
0.0693	4437.63	4.1060	4.1060	0.8291	24.18	-0.17	0.050			
0.0702	4491.81	4.1050	4.1049	0.8255	24.16	-0.19	0.050			
0.0710	4545.15	4.1040	4.1039	0.8195	24.15	-0.20	0.050			
0.0718	4596.97	4.1030	4.1029	0.8123	24.14	-0.21	0.050			
0.0726	4647.78	4.1020	4.1020	0.8080	24.13	-0.22	0.050			
0.0734	4698.72	4.1010	4.1011	0.8055	24.12	-0.23	0.050			
0.0742	4748.21	4.1000	4.1002	0.8077	24.11	-0.24	0.050			
0.0750	4798.42	4.0990	4.0992	0.8081	24.10	-0.25	0.050			
0.0758	4849.54	4.0980	4.0983	0.8102	24.09	-0.26	0.050			
0.0766	4901.65	4.0970	4.0971	0.8119	24.09	-0.26	0.050			
0.0774	4953.07	4.0960	4.0960	0.8122	24.09	-0.26	0.050			
0.0782	5004.94	4.0950	4.0949	0.8131	24.11	-0.24	0.050			
0.0790	5056.81	4.0940	4.0936	0.8147	24.12	-0.23	0.050			
0.0798	5108.66	4.0930	4.0927	0.8157	24.13	-0.22	0.050	0.163	0.460	
0.0806	5160.82	4.0920	4.0917	0.8177	24.15	-0.20	0.050			
0.0815	5213.33	4.0910	4.0910	0.8190	24.17	-0.18	0.050			
0.0823	5266.42	4.0900	4.0899	0.8197	24.19	-0.16	0.050			
0.0831	5319.89	4.0890	4.0893	0.8203	24.21	-0.14	0.050			
0.0840	5373.43	4.0880	4.0882	0.8215	24.23	-0.12	0.050			
0.0848	5427.54	4.0870	4.0870	0.8240	24.27	-0.08	0.050			
0.0856	5480.91	4.0860	4.0859	0.8255	24.28	-0.07	0.050			
0.0865	5534.58	4.0850	4.0849	0.8243	24.31	-0.04	0.050			
0.0873	5587.53	4.0840	4.0840	0.8220	24.32	-0.03	0.050			
0.0881	5639.02	4.0830	4.0831	0.8226	24.35	-0.00	0.050			
0.0889	5689.93	4.0820	4.0820	0.8196	24.36	0.01	0.050			
0.0897	5740.61	4.0810	4.0811	0.8214	24.37	0.02	0.050			
0.0905	5791.50	4.0800	4.0802	0.8202	24.39	0.04	0.050			
0.0913	5843.67	4.0790	4.0790	0.8234	24.40	0.05	0.050			
0.0921	5896.88	4.0780	4.0779	0.8257	24.42	0.07	0.050			
0.0930	5950.20	4.0770	4.0770	0.8292	24.45	0.10	0.050			
0.0938	6003.25	4.0760	4.0759	0.8318	24.45	0.10	0.050			
0.0946	6056.65	4.0750	4.0748	0.8330	24.45	0.10	0.050			
0.0955	6110.32	4.0740	4.0739	0.8354	24.47	0.12	0.050			
0.0963	6163.88	4.0730	4.0731	0.8372	24.45	0.10	0.050			
0.0972	6218.49	4.0720	4.0721	0.8380	24.43	0.08	0.050			
0.0980	6272.77	4.0710	4.0711	0.8392	24.42	0.07	0.050			
0.0989	6327.52	4.0700	4.0701	0.8414	24.40	0.05	0.050			
0.0997	6382.19	4.0690	4.0691	0.8428	24.39	0.04	0.050			
0.1006	6436.41	4.0680	4.0680	0.8428	24.37	0.02	0.050	0.202	0.399	
0.1014	6490.38	4.0670	4.0671	0.8407	24.37	0.02	0.050			
0.1023	6544.16	4.0660	4.0660	0.8400	24.35	0.00	0.050			
0.1031	6598.03	4.0650	4.0648	0.8387	24.32	-0.03	0.050			
0.1039	6651.81	4.0640	4.0641	0.8367	24.31	-0.04	0.050			
0.1048	6704.13	4.0630	4.0629	0.8336	24.29	-0.06	0.050			
0.1056	6757.36	4.0620	4.0620	0.8325	24.28	-0.07	0.050			
0.1064	6810.12	4.0610	4.0610	0.8314	24.27	-0.08	0.050			
0.1072	6863.54	4.0600	4.0599	0.8305	24.27	-0.08	0.050			
0.1081	6916.87	4.0590	4.0591	0.8308	24.27	-0.08	0.050			
0.1089	6970.19	4.0580	4.0581	0.8313	24.27	-0.08	0.050			
0.1097	7022.74	4.0570	4.0570	0.8308	24.27	-0.08	0.050			
0.1106	7075.60	4.0560	4.0561	0.8319	24.28	-0.07	0.050			
0.1114	7127.88	4.0550	4.0549	0.8348	24.29	-0.06	0.050			
0.1122	7181.00	4.0540	4.0540	0.8366	24.31	-0.04	0.050			
0.1130	7234.24	4.0530	4.0531	0.8400	24.32	-0.03	0.050			
0.1139	7287.34	4.0520	4.0519	0.8440	24.31	-0.04	0.050			
0.1147	7341.20	4.0510	4.0510	0.8480	24.32	-0.03	0.050			
0.1156	7395.53	4.0500	4.0499	0.8505	24.33	-0.02	0.050			
0.1164	7449.95	4.0490	4.0489	0.8525	24.35	-0.00	0.050			
0.1173	7505.28	4.0480	4.0479	0.8550	24.36	0.01	0.050			
0.1181	7560.78	4.0470	4.0469	0.8556	24.37	0.02	0.050			
0.1190	7616.17	4.0460	4.0460	0.8578	24.38	0.03	0.050			
0.1199	7672.12	4.0450	4.0451	0.8590	24.37	0.02	0.050	0.125	0.247	
0.1207	7727.91	4.0440	4.0440	0.8577	24.39	0.04	0.050			
0.1216	7783.42	4.0430	4.0431	0.8586	24.39	0.04	0.050			
0.1225	7838.85	4.0420	4.0421	0.8579	24.38	0.03	0.050			
0.1233	7894.06	4.0410	4.0410	0.8574	24.39	0.04	0.050			
0.1242	7949.36	4.0400	4.0402	0.8579	24.39	0.04	0.050			
0.1251	8004.00	4.0390	4.0390	0.8578	24.39	0.04	0.050			
0.1259	8058.31	4.0380	4.0380	0.8559	24.38	0.03	0.050			
0.1268	8112.82	4.0370	4.0370	0.8530	24.39	0.04	0.050			
0.1276	8167.12	4.0360	4.0360	0.8502	24.39	0.04	0.050			
0.1285	8221.09	4.0350	4.0349	0.8460	24.38	0.03	0.050			
0.1293	8275.01	4.0340	4.0338	0.8439	24.37	0.02	0.050			
0.1301	8329.25	4.0330	4.0329	0.8418	24.36	0.01	0.050			
0.1310	8383.39	4.0320	4.0320	0.8373	24.34	-0.01	0.050			
0.1318	8437.35	4.0310	4.0309	0.8347	24.32	-0.03	0.050			
0.1327	8491.32	4.0300	4.0301	0.8332	24.29	-0.06	0.050			
0.1335	8545.06	4.0290	4.0290	0.8313	24.26	-0.09	0.050			
0.1343	8598.18	4.0280	4.0281	0.8289	24.24	-0.11	0.050			
0.1352	8651.16	4.0270	4.0270	0.8268	24.22	-0.13	0.050			
0.1360	8702.98	4.0260	4.0260	0.8275	24.20	-0.15	0.050			
0.1368	8755.35	4.0250	4.0251	0.8267	24.18	-0.17	0.050			
0.1376	8807.55	4.0240	4.0240	0.8257	24.16	-0.19	0.050			
0.1384	8859.23	4.0230	4.0231	0.8257	24.14	-0.21	0.050			
0.1392	8911.46	4.0220	4.0220	0.8260	24.12	-0.23	0.050			
0.1400	8962.96	4.0210	4.0207	0.8269	24.10	-0.25	0.050	0.070	0.370	
0.1409	9015.35	4.0200	4.0200	0.8290	24.09	-0.26	0.050			
0.1417	9067.40	4.0190	4.0189	0.8321	24.08	-0.27	0.050			
0.1425	9120.16	4.0180	4.0180	0.8394	24.06	-0.29	0.050			
0.1433	9173.88	4.0170	4.0170	0.8450	24.07	-0.28	0.050			
0.1442	9228.69	4.0160	4.0160	0.8504	24.06	-0.29	0.050			
0.1451	9283.97	4.0150	4.0151	0.8534	24.07	-0.28	0.050			
0.1459	9339.33	4.0140	4.0141	0.8575	24.10	-0.25	0.050			
0.1468	9394.87	4.0130	4.0129	0.8611	24.12	-0.23	0.050			
0.1477	9451.16	4.0120	4.0120	0.8663	24.13	-0.22	0.050			
0.1486	9507.31	4.0110	4.0110	0.8688	24.14	-0.21	0.050			
0.1494	9563.10	4.0100	4.0100	0.8708	24.16	-0.19	0.050			
0.1503	9619.06	4.0090	4.0090	0.8722	24.18	-0.17	0.050			
0.1512	9675.36	4.0080	4.0081	0.8739	24.19	-0.16	0.050			
0.1520	9730.81	4.0070	4.0070	0.8752	24.21	-0.14	0.050			
0.1529	9786.56	4.0060	4.0060	0.8765	24.23	-0.12	0.050			
0.1538	9842.65	4.0050	4.0051	0.8787	24.25	-0.10	0.050			
0.1547	9899.32	4.0040	4.0038	0.8803	24.28	-0.07	0.050			
0.1556	9955.83	4.0030	4.0030	0.8818	24.29	-0.06	0.050			
0.1564	10012.25	4.0020	4.0020	0.8823	24.31	-0.04	0.050			
0.1573	10067.99	4.0010	4.0009	0.8836	24.32	-0.03	0.050			
0.1582	10124.64	4.0000	4.0001	0.8850	24.35	0.00	0.050			
0.1591	10181.47	3.9990	3.9989	0.8846	24.36	0.01	0.050			
0.1600	10238.98	3.9980	3.9979	0.8810	24.37	0.02	0.050	-0.016	0.288	
0.1609	10296.32	3.9970	3.9970	0.8804	24.39	0.04	0.050			
0.1618	10353.77	3.9960	3.9960	0.8787	24.39	0.04	0.050			
0.1627	10411.74	3.9950	3.9949	0.8746	24.39	0.04	0.050			
0.1636	10468.02	3.9940	3.9939	0.8706	24.37	0.02	0.050			
0.1644	10523.99	3.9930	3.9930	0.8666	24.36	0.01	0.050			
0.1653	10579.03	3.9920	3.9920	0.8633	24.34	-0.01	0.050			
0.1662	10634.14	3.9910	3.9911	0.8598	24.32	-0.03	0.050			
0.1670	10688.07	3.9900	3.9901	0.8583	24.30	-0.05	0.050			
0.1678	10742.14	3.9890	3.9891	0.8558	24.28	-0.07	0.050			
0.1687	10796.15	3.9880	3.9880	0.8530	24.27	-0.08	0.050			
0.1695	10849.69	3.9870	3.9868	0.8523	24.24	-0.11	0.050			
0.1704	10902.90	3.9860	3.9860	0.8509	24.22	-0.13	0.050			
0.1712	10956.75	3.9850	3.9848	0.8506	24.20	-0.15	0.050			
0.1720	11010.60	3.9840	3.9840	0.8527	24.18	-0.17	0.050			
0.1729	11063.60	3.9830	3.9829	0.8552	24.15	-0.20	0.050			
0.1737	11117.89	3.9820	3.9820	0.8600	24.14	-0.21	0.050			
0.1746	11171.98	3.9810	3.9810	0.8629	24.13	-0.22	0.050			
0.1754	11227.67	3.9800	3.9800	0.8685	24.11	-0.24	0.050			
0.1763	11284.11	3.9790	3.9791	0.8741	24.11	-0.24	0.050			
0.1772	11341.68	3.9780	3.9779	0.8782	24.12	-0.23	0.050			
0.1781	11398.54	3.9770	3.9771	0.8812	24.13	-0.22	0.050			
0.1790	11455.68	3.9760	3.9760	0.8840	24.14	-0.21	0.050			
0.1799	11512.86	3.9750	3.9749	0.8888	24.17	-0.18	0.050	0.111	0.315	
0.1808	11569.73	3.9740	3.9740	0.8901	24.18	-0.17	0.050			
0.1817	11626.84	3.9730	3.9731	0.8912	24.20	-0.15	0.050			
0.1826	11684.07	3.9720	3.9721	0.8930	24.22	-0.13	0.050			
0.1835	11741.44	3.9710	3.9711	0.8935	24.23	-0.12	0.050			
0.1844	11799.19	3.9700	3.9701	0.8933	24.24	-0.11	0.050			
0.1853	11856.79	3.9690	3.9689	0.8926	24.25	-0.10	0.050			
0.1862	11914.41	3.9680	3.9679	0.8924	24.26	-0.09	0.050			
0.1871	11971.76	3.9670	3.9668	0.8929	24.27	-0.08	0.050			
0.1880	12029.10	3.9660	3.9658	0.8920	24.27	-0.08	0.050			
0.1888	12085.84	3.9650	3.9650	0.8908	24.29	-0.06	0.050			
0.1897	12142.51	3.9640	3.9640	0.8892	24.29	-0.06	0.050			
0.1906	12198.71	3.9630	3.9630	0.8879	24.29	-0.06	0.050			
0.1915	12255.66	3.9620	3.9620	0.8880	24.31	-0.04	0.050			
0.1924	12312.46	3.9610	3.9610	0.8878	24.32	-0.03	0.050			
0.1933	12369.73	3.9600	3.9599	0.8879	24.34	-0.01	0.050			
0.1942	12426.98	3.9590	3.9591	0.8862	24.35	0.00	0.050			
0.1951	12484.95	3.9580	3.9579	0.8826	24.37	0.02	0.050			
0.1960	12541.57	3.9570	3.9570	0.8787	24.39	0.04	0.050			
0.1968	12597.64	3.9560	3.9558	0.8755	24.39	0.04	0.050			
0.1977	12653.07	3.9550	3.9550	0.8721	24.38	0.03	0.050			
0.1986	12708.67	3.9540	3.9540	0.8703	24.37	0.02	0.050			
0.1994	12764.51	3.9530	3.9530	0.8695	24.36	0.01	0.050			
0.2003	12820.02	3.9520	3.9521	0.8675	24.35	0.00	0.050	-0.258	0.178	
0.2012	12875.02	3.9510	3.9512	0.8681	24.32	-0.03	0.050			
0.2020	12930.05	3.9500	3.9500	0.8675	24.30	-0.05	0.050			
0.2029	12984.32	3.9490	3.9490	0.8690	24.28	-0.07	0.050			
0.2037	13039.24	3.9480	3.9479	0.8706	24.27	-0.08	0.050			
0.2046	13094.58	3.9470	3.9469	0.8709	24.25	-0.10	0.050			
0.2055	13149.76	3.9460	3.9459	0.8710	24.23	-0.12	0.050			
0.2063	13205.19	3.9450	3.9450	0.8719	24.23	-0.12	0.050			
0.2072	13261.05	3.9440	3.9440	0.8725	24.21	-0.14	0.050			
0.2081	13317.06	3.9430	3.9430	0.8741	24.22	-0.13	0.050			
0.2090	13373.62	3.9420	3.9418	0.8759	24.23	-0.12	0.050			
0.2098	13430.20	3.9410	3.9409	0.8768	24.23	-0.12	0.050			
0.2107	13487.32	3.9400	3.9401	0.8779	24.24	-0.11	0.050			
0.2116	13544.20	3.9390	3.9391	0.8798	24.25	-0.10	0.050			
0.2125	13601.97	3.9380	3.9381	0.8809	24.26	-0.09	0.050			
0.2134	13658.90	3.9370	3.9370	0.8793	24.28	-0.07	0.050			
0.2143	13715.05	3.9360	3.9360	0.8770	24.30	-0.05	0.050			
0.2152	13771.13	3.9350	3.9349	0.8749	24.31	-0.04	0.050			
0.2160	13826.97	3.9340	3.9340	0.8726	24.32	-0.03	0.050			
0.2169	13882.96	3.9330	3.9330	0.8708	24.33	-0.02	0.050			
0.2178	13938.02	3.9320	3.9319	0.8706	24.35	0.00	0.050			
0.2186	13992.87	3.9310	3.9311	0.8667	24.37	0.02	0.050			
0.2195	14047.66	3.9300	3.9299	0.8656	24.39	0.04	0.050			
0.2204	14102.44	3.9290	3.9288	0.8638	24.40	0.05	0.050			
0.2212	14157.93	3.9280	3.9280	0.8636	24.40	0.05	0.050			
0.2221	14213.32	3.9270	3.9270	0.8632	24.40	0.05	0.050			
0.2230	14269.03	3.9260	3.9259	0.8622	24.42	0.07	0.050			
0.2238	14324.16	3.9250	3.9250	0.8611	24.43	0.08	0.050			
0.2247	14379.33	3.9240	3.9239	0.8604	24.43	0.08	0.050			
0.2255	14434.16	3.9230	3.9229	0.8615	24.43	0.08	0.050			
0.2264	14489.16	3.9220	3.9221	0.8614	24.43	0.08	0.050			
0.2272	14543.79	3.9210	3.9211	0.8618	24.43	0.08	0.050			
0.2281	14598.84	3.9200	3.9202	0.8628	24.43	0.08	0.050			
0.2290	14653.62	3.9190	3.9190	0.8631	24.43	0.08	0.050			
0.2298	14709.68	3.9180	3.9180	0.8656	24.42	0.07	0.050			
0.2307	14765.16	3.9170	3.9169	0.8650	24.42	0.07	0.050			
0.2316	14820.56	3.9160	3.9159	0.8636	24.40	0.05	0.050			
0.2324	14875.72	3.9150	3.9150	0.8639	24.39	0.04	0.050			
0.2333	14930.86	3.9140	3.9140	0.8644	24.37	0.02	0.050			
0.2342	14985.68	3.9130	3.9129	0.8657	24.34	-0.01	0.050			
0.2350	15040.14	3.9120	3.9119	0.8677	24.32	-0.03	0.050			
0.2359	15095.59	3.9110	3.9110	0.8713	24.30	-0.05	0.050			
0.2367	15151.22	3.9100	3.9102	0.8749	24.28	-0.07	0.050			
0.2376	15207.21	3.9090	3.9091	0.8784	24.27	-0.08	0.050			
0.2385	15263.56	3.9080	3.9080	0.8809	24.26	-0.09	0.050			
0.2394	15320.39	3.9070	3.9070	0.8839	24.24	-0.11	0.050			
0.2403	15377.08	3.9060	3.9061	0.8862	24.23	-0.12	0.050	0.081	0.272	
0.2411	15433.51	3.9050	3.9050	0.8896	24.23	-0.12	0.050			
0.2420	15490.34	3.9040	3.9039	0.8925	24.23	-0.12	0.050			
0.2429	15547.94	3.9030	3.9030	0.8921	24.24	-0.11	0.050			
0.2438	15605.44	3.9020	3.9021	0.8937	24.25	-0.10	0.050			
0.2447	15663.41	3.9010	3.9010	0.8950	24.25	-0.10	0.050			
0.2456	15721.27	3.9000	3.9001	0.8950	24.27	-0.08	0.050			
0.2465	15779.15	3.8990	3.8991	0.8958	24.27	-0.08	0.050			
0.2475	15837.54	3.8980	3.8981	0.8976	24.27	-0.08	0.050			
0.2484	15895.10	3.8970	3.8970	0.8972	24.27	-0.08	0.050			
0.2493	15953.26	3.8960	3.8959	0.8962	24.27	-0.08	0.050			
0.2502	16011.18	3.8950	3.8951	0.8940	24.27	-0.08	0.050			
0.2511	16068.17	3.8940	3.8941	0.8894	24.27	-0.08	0.050			
0.2519	16124.37	3.8930	3.8930	0.8875	24.26	-0.09	0.050			
0.2528	16180.56	3.8920	3.8919	0.8856	24.25	-0.10	0.050			
0.2537	16237.37	3.8910	3.8910	0.8839	24.25	-0.10	0.050			
0.2546	16294.15	3.8900	3.8900	0.8809	24.25	-0.10	0.050			
0.2555	16350.77	3.8890	3.8889	0.8769	24.25	-0.10	0.050			
0.2564	16407.09	3.8880	3.8880	0.8738	24.25	-0.10	0.050			
0.2572	16463.13	3.8870	3.8870	0.8698	24.25	-0.10	0.050			
0.2581	16518.46	3.8860	3.8860	0.8657	24.25	-0.10	0.050			
0.2590	16572.99	3.8850	3.8849	0.8644	24.27	-0.08	0.050			
0.2598	16628.07	3.8840	3.8839	0.8639	24.27	-0.08	0.050			
0.2607	16682.82	3.8830	3.8831	0.8663	24.28	-0.07	0.050			
0.2615	16737.86	3.8820	3.8821	0.8657	24.29	-0.06	0.050			
0.2624	16792.48	3.8810	3.8811	0.8665	24.29	-0.06	0.050			
0.2632	16846.53	3.8800	3.8800	0.8682	24.29	-0.06	0.050			
0.2641	16901.32	3.8790	3.8789	0.8712	24.30	-0.05	0.050			
0.2649	16956.07	3.8780	3.8780	0.8736	24.30	-0.05	0.050			
0.2658	17011.62	3.8770	3.8770	0.8780	24.31	-0.04	0.050			
0.2667	17067.97	3.8760	3.8758	0.8817	24.29	-0.06	0.050			
0.2676	17124.65	3.8750	3.8749	0.8865	24.29	-0.06	0.050			
0.2685	17181.38	3.8740	3.8740	0.8911	24.28	-0.07	0.050			
0.2693	17237.86	3.8730	3.8730	0.8948	24.27	-0.08	0.050			
0.2702	17295.70	3.8720	3.8721	0.9010	24.27	-0.08	0.050			
0.2711	17353.33	3.8710	3.8711	0.9093	24.27	-0.08	0.050			
0.2721	17412.20	3.8700	3.8702	0.9190	24.26	-0.09	0.050			
0.2730	17472.07	3.8690	3.8691	0.9251	24.25	-0.10	0.050			
0.2739	17531.80	3.8680	3.8680	0.9304	24.25	-0.10	0.050			
0.2749	17592.02	3.8670	3.8671	0.9343	24.23	-0.12	0.050			
0.2758	17652.28	3.8660	3.8659	0.9370	24.24	-0.11	0.050			
0.2768	17712.68	3.8650	3.8649	0.9379	24.23	-0.12	0.050			
0.2777	17773.21	3.8640	3.8640	0.9387	24.23	-0.12	0.050			
0.2787	17834.06	3.8630	3.8630	0.9403	24.23	-0.12	0.050			
0.2796	17894.98	3.8620	3.8620	0.9407	24.23	-0.12	0.050			
0.2806	17955.73	3.8610	3.8610	0.9407	24.25	-0.10	0.050	0.171	0.447	
0.2815	18016.67	3.8600	3.8600	0.9394	24.26	-0.09	0.050			
0.2825	18077.40	3.8590	3.8590	0.9386	24.27	-0.08	0.050			
0.2834	18138.63	3.8580	3.8581	0.9358	24.29	-0.06	0.050			
0.2844	18198.94	3.8570	3.8571	0.9325	24.30	-0.05	0.050			
