Ah_balance (normalized)	Ah_balance (mAh)	Voltage - fit (V)	Voltage -  interpolate (V)	dQ/dV (1/V)	Temperature (°C)	Temperature - diff (°C)	Current (C)	R_DC 0ms (mOhm)	R_DC 50ms (mOhm)	R_DC 50 ms PEC (mOhm)
-0.0066	-420.72	4.2000	4.1776	0.8454	23.67	-0.22	-0.314	0.224	0.410	
-0.0057	-366.64	4.1990	4.1990	0.8550	23.67	-0.22	0.050			
-0.0049	-311.87	4.1980	4.1979	0.8567	23.67	-0.22	0.050			
-0.0040	-257.05	4.1970	4.1967	0.8572	23.68	-0.21	0.050			
-0.0031	-201.59	4.1960	4.1961	0.8605	23.69	-0.20	0.050			
-0.0023	-146.41	4.1950	4.1950	0.8599	23.68	-0.21	0.050			
-0.0014	-91.14	4.1940	4.1942	0.8587	23.69	-0.20	0.050			
-0.0006	-36.47	4.1930	4.1930	0.8572	23.68	-0.21	0.050			
0.0003	18.34	4.1920	4.1919	0.8558	23.69	-0.20	0.050			
0.0011	72.61	4.1910	4.1910	0.8556	23.69	-0.20	0.050			
0.0020	127.19	4.1900	4.1900	0.8554	23.69	-0.20	0.050			
0.0029	182.45	4.1890	4.1890	0.8569	23.69	-0.20	0.050			
0.0037	236.75	4.1880	4.1881	0.8585	23.69	-0.20	0.050			
0.0046	291.22	4.1870	4.1871	0.8576	23.70	-0.19	0.050			
0.0054	345.54	4.1860	4.1860	0.8569	23.70	-0.19	0.050			
0.0062	399.74	4.1850	4.1849	0.8572	23.70	-0.19	0.050			
0.0071	454.45	4.1840	4.1840	0.8585	23.70	-0.19	0.050			
0.0080	510.32	4.1830	4.1830	0.8591	23.70	-0.19	0.050			
0.0088	565.89	4.1820	4.1819	0.8599	23.71	-0.18	0.050			
0.0097	621.23	4.1810	4.1810	0.8592	23.72	-0.17	0.050			
0.0106	676.29	4.1800	4.1800	0.8588	23.72	-0.17	0.050			
0.0114	731.68	4.1790	4.1790	0.8591	23.73	-0.16	0.050			
0.0123	786.58	4.1780	4.1780	0.8582	23.72	-0.17	0.050			
0.0132	841.98	4.1770	4.1770	0.8590	23.72	-0.17	0.050	0.322	0.362	
0.0140	897.50	4.1760	4.1761	0.8585	23.72	-0.17	0.050			
0.0149	953.04	4.1750	4.1750	0.8568	23.72	-0.17	0.050			
0.0157	1007.74	4.1740	4.1742	0.8540	23.72	-0.17	0.050			
0.0166	1062.02	4.1730	4.1729	0.8525	23.72	-0.17	0.050			
0.0174	1115.85	4.1720	4.1719	0.8527	23.72	-0.17	0.050			
0.0183	1169.62	4.1710	4.1710	0.8517	23.73	-0.16	0.050			
0.0191	1223.25	4.1700	4.1700	0.8532	23.73	-0.16	0.050			
0.0200	1277.49	4.1690	4.1691	0.8540	23.72	-0.17	0.050			
0.0208	1331.27	4.1680	4.1680	0.8545	23.73	-0.16	0.050			
0.0217	1386.25	4.1670	4.1671	0.8555	23.72	-0.17	0.050			
0.0225	1441.09	4.1660	4.1659	0.8553	23.72	-0.17	0.050			
0.0234	1496.22	4.1650	4.1649	0.8561	23.72	-0.17	0.050			
0.0242	1551.04	4.1640	4.1639	0.8574	23.72	-0.17	0.050			
0.0251	1606.61	4.1630	4.1631	0.8604	23.71	-0.18	0.050			
0.0260	1661.81	4.1620	4.1620	0.8623	23.70	-0.19	0.050			
0.0268	1716.83	4.1610	4.1611	0.8626	23.70	-0.19	0.050			
0.0277	1772.07	4.1600	4.1600	0.8627	23.69	-0.20	0.050			
0.0286	1827.66	4.1590	4.1591	0.8641	23.68	-0.21	0.050			
0.0294	1883.18	4.1580	4.1581	0.8651	23.68	-0.21	0.050			
0.0303	1939.07	4.1570	4.1570	0.8640	23.67	-0.22	0.050			
0.0312	1994.97	4.1560	4.1559	0.8639	23.67	-0.22	0.050			
0.0320	2050.82	4.1550	4.1548	0.8628	23.66	-0.23	0.050			
0.0329	2106.18	4.1540	4.1540	0.8606	23.65	-0.24	0.050			
0.0338	2160.79	4.1530	4.1531	0.8578	23.64	-0.25	0.050			
0.0346	2215.36	4.1520	4.1520	0.8560	23.64	-0.25	0.050			
0.0355	2269.75	4.1510	4.1510	0.8557	23.64	-0.25	0.050			
0.0363	2324.14	4.1500	4.1500	0.8553	23.62	-0.27	0.050			
0.0372	2378.61	4.1490	4.1491	0.8556	23.62	-0.27	0.050			
0.0380	2433.41	4.1480	4.1481	0.8567	23.62	-0.27	0.050			
0.0389	2488.61	4.1470	4.1471	0.8569	23.61	-0.28	0.050			
0.0397	2543.70	4.1460	4.1460	0.8564	23.61	-0.28	0.050			
0.0406	2598.68	4.1450	4.1449	0.8546	23.60	-0.29	0.050			
0.0414	2652.70	4.1440	4.1439	0.8521	23.59	-0.30	0.050			
0.0423	2706.92	4.1430	4.1429	0.8528	23.59	-0.30	0.050			
0.0431	2761.03	4.1420	4.1420	0.8525	23.59	-0.30	0.050			
0.0440	2815.78	4.1410	4.1410	0.8522	23.58	-0.31	0.050			
0.0449	2870.50	4.1400	4.1400	0.8524	23.56	-0.33	0.050			
0.0457	2925.17	4.1390	4.1391	0.8523	23.56	-0.33	0.050			
0.0466	2979.67	4.1380	4.1382	0.8519	23.56	-0.33	0.050			
0.0474	3034.77	4.1370	4.1371	0.8540	23.56	-0.33	0.050			
0.0483	3089.60	4.1360	4.1360	0.8547	23.56	-0.33	0.050			
0.0491	3143.59	4.1350	4.1350	0.8559	23.56	-0.33	0.050			
0.0500	3197.86	4.1340	4.1340	0.8578	23.56	-0.33	0.050			
0.0508	3251.37	4.1330	4.1331	0.8606	23.56	-0.33	0.050			
0.0517	3305.92	4.1320	4.1321	0.8637	23.56	-0.33	0.050			
0.0525	3360.61	4.1310	4.1311	0.8647	23.56	-0.33	0.050			
0.0534	3416.73	4.1300	4.1300	0.8654	23.56	-0.33	0.050	0.259	0.421	
0.0543	3472.62	4.1290	4.1289	0.8664	23.58	-0.31	0.050			
0.0551	3528.76	4.1280	4.1279	0.8680	23.59	-0.30	0.050			
0.0560	3585.32	4.1270	4.1269	0.8693	23.58	-0.31	0.050			
0.0569	3641.34	4.1260	4.1259	0.8701	23.58	-0.31	0.050			
0.0578	3697.78	4.1250	4.1250	0.8701	23.59	-0.30	0.050			
0.0587	3754.35	4.1240	4.1241	0.8674	23.59	-0.30	0.050			
0.0595	3810.18	4.1230	4.1232	0.8657	23.60	-0.29	0.050			
0.0604	3865.70	4.1220	4.1222	0.8645	23.60	-0.29	0.050			
0.0613	3921.37	4.1210	4.1211	0.8635	23.60	-0.29	0.050			
0.0621	3977.08	4.1200	4.1201	0.8625	23.61	-0.28	0.050			
0.0630	4031.74	4.1190	4.1189	0.8612	23.60	-0.29	0.050			
0.0639	4086.56	4.1180	4.1180	0.8594	23.62	-0.27	0.050			
0.0647	4140.65	4.1170	4.1170	0.8573	23.62	-0.27	0.050			
0.0655	4195.09	4.1160	4.1160	0.8549	23.62	-0.27	0.050			
0.0664	4248.44	4.1150	4.1150	0.8524	23.63	-0.26	0.050			
0.0672	4302.17	4.1140	4.1139	0.8524	23.64	-0.25	0.050			
0.0681	4356.12	4.1130	4.1130	0.8517	23.64	-0.25	0.050			
0.0689	4410.68	4.1120	4.1120	0.8533	23.64	-0.25	0.050			
0.0698	4465.60	4.1110	4.1110	0.8554	23.64	-0.25	0.050			
0.0706	4520.87	4.1100	4.1100	0.8580	23.66	-0.23	0.050			
0.0715	4575.98	4.1090	4.1090	0.8603	23.66	-0.23	0.050			
0.0724	4630.78	4.1080	4.1081	0.8621	23.67	-0.22	0.050			
0.0732	4685.52	4.1070	4.1069	0.8637	23.67	-0.22	0.050	0.196	0.439	
0.0741	4740.54	4.1060	4.1059	0.8681	23.67	-0.22	0.050			
0.0749	4796.09	4.1050	4.1051	0.8714	23.67	-0.22	0.050			
0.0758	4852.24	4.1040	4.1041	0.8748	23.67	-0.22	0.050			
0.0767	4908.15	4.1030	4.1030	0.8767	23.68	-0.21	0.050			
0.0776	4964.37	4.1020	4.1020	0.8774	23.69	-0.20	0.050			
0.0785	5021.55	4.1010	4.1009	0.8769	23.69	-0.20	0.050			
0.0793	5078.08	4.1000	4.0999	0.8770	23.69	-0.20	0.050			
0.0802	5134.77	4.0990	4.0989	0.8774	23.69	-0.20	0.050			
0.0811	5191.23	4.0980	4.0980	0.8770	23.69	-0.20	0.050			
0.0820	5248.23	4.0970	4.0970	0.8771	23.69	-0.20	0.050			
0.0829	5305.06	4.0960	4.0961	0.8761	23.70	-0.19	0.050			
0.0838	5361.06	4.0950	4.0951	0.8745	23.69	-0.20	0.050			
0.0846	5416.81	4.0940	4.0941	0.8746	23.70	-0.19	0.050			
0.0855	5472.55	4.0930	4.0930	0.8748	23.70	-0.19	0.050			
0.0864	5528.38	4.0920	4.0920	0.8746	23.70	-0.19	0.050			
0.0872	5583.70	4.0910	4.0911	0.8743	23.70	-0.19	0.050			
0.0881	5639.21	4.0900	4.0899	0.8738	23.70	-0.19	0.050			
0.0890	5694.00	4.0890	4.0890	0.8738	23.70	-0.19	0.050			
0.0898	5749.73	4.0880	4.0879	0.8732	23.70	-0.19	0.050			
0.0907	5805.25	4.0870	4.0870	0.8735	23.70	-0.19	0.050			
0.0916	5860.98	4.0860	4.0859	0.8722	23.69	-0.20	0.050			
0.0925	5917.39	4.0850	4.0850	0.8714	23.69	-0.20	0.050			
0.0933	5973.92	4.0840	4.0840	0.8718	23.69	-0.20	0.050	0.396	0.473	
0.0942	6030.21	4.0830	4.0831	0.8718	23.68	-0.21	0.050			
0.0951	6086.54	4.0820	4.0821	0.8715	23.68	-0.21	0.050			
0.0960	6143.06	4.0810	4.0810	0.8723	23.69	-0.20	0.050			
0.0969	6199.25	4.0800	4.0800	0.8712	23.68	-0.21	0.050			
0.0977	6254.36	4.0790	4.0792	0.8716	23.67	-0.22	0.050			
0.0986	6309.77	4.0780	4.0780	0.8723	23.67	-0.22	0.050			
0.0995	6365.56	4.0770	4.0771	0.8724	23.67	-0.22	0.050			
0.1003	6421.17	4.0760	4.0760	0.8708	23.66	-0.23	0.050			
0.1012	6476.38	4.0750	4.0748	0.8700	23.64	-0.25	0.050			
0.1020	6531.00	4.0740	4.0739	0.8692	23.64	-0.25	0.050			
0.1029	6586.48	4.0730	4.0730	0.8686	23.63	-0.26	0.050			
0.1038	6642.06	4.0720	4.0719	0.8684	23.64	-0.25	0.050			
0.1046	6697.58	4.0710	4.0709	0.8694	23.64	-0.25	0.050			
0.1055	6753.39	4.0700	4.0700	0.8706	23.62	-0.27	0.050			
0.1064	6809.12	4.0690	4.0691	0.8706	23.62	-0.27	0.050			
0.1073	6865.40	4.0680	4.0681	0.8715	23.62	-0.27	0.050			
0.1082	6921.90	4.0670	4.0670	0.8720	23.62	-0.27	0.050			
0.1090	6978.45	4.0660	4.0659	0.8726	23.61	-0.28	0.050			
0.1099	7034.60	4.0650	4.0651	0.8724	23.61	-0.28	0.050			
0.1108	7090.94	4.0640	4.0641	0.8716	23.62	-0.27	0.050			
0.1117	7145.91	4.0630	4.0630	0.8714	23.63	-0.26	0.050			
0.1125	7201.36	4.0620	4.0619	0.8710	23.64	-0.25	0.050			
0.1134	7256.06	4.0610	4.0611	0.8731	23.63	-0.26	0.050			
0.1142	7311.35	4.0600	4.0600	0.8731	23.64	-0.25	0.050			
0.1151	7366.45	4.0590	4.0590	0.8731	23.64	-0.25	0.050			
0.1160	7422.27	4.0580	4.0581	0.8754	23.64	-0.25	0.050			
0.1168	7478.35	4.0570	4.0570	0.8770	23.66	-0.23	0.050			
0.1177	7535.06	4.0560	4.0560	0.8791	23.66	-0.23	0.050			
0.1186	7591.13	4.0550	4.0549	0.8812	23.66	-0.23	0.050			
0.1195	7647.43	4.0540	4.0539	0.8823	23.67	-0.22	0.050			
0.1204	7704.50	4.0530	4.0530	0.8844	23.68	-0.21	0.050			
0.1213	7761.57	4.0520	4.0520	0.8859	23.67	-0.22	0.050			
0.1222	7818.39	4.0510	4.0512	0.8863	23.67	-0.22	0.050			
0.1231	7876.05	4.0500	4.0501	0.8869	23.68	-0.21	0.050			
0.1240	7933.13	4.0490	4.0490	0.8871	23.69	-0.20	0.050			
0.1249	7990.92	4.0480	4.0480	0.8865	23.69	-0.20	0.050			
0.1257	8047.54	4.0470	4.0470	0.8881	23.69	-0.20	0.050			
0.1266	8104.45	4.0460	4.0459	0.8879	23.69	-0.20	0.050			
0.1275	8160.73	4.0450	4.0451	0.8888	23.69	-0.20	0.050			
0.1284	8217.08	4.0440	4.0440	0.8891	23.70	-0.19	0.050			
0.1293	8273.18	4.0430	4.0430	0.8883	23.69	-0.20	0.050			
0.1302	8329.81	4.0420	4.0420	0.8880	23.70	-0.19	0.050			
0.1310	8386.10	4.0410	4.0411	0.8886	23.70	-0.19	0.050			
0.1319	8443.17	4.0400	4.0399	0.8898	23.70	-0.19	0.050			
0.1328	8500.17	4.0390	4.0390	0.8914	23.70	-0.19	0.050	0.411	0.424	
0.1337	8557.15	4.0380	4.0378	0.8927	23.70	-0.19	0.050			
0.1346	8614.58	4.0370	4.0371	0.8937	23.71	-0.18	0.050			
0.1355	8672.11	4.0360	4.0360	0.8951	23.70	-0.19	0.050			
0.1364	8729.71	4.0350	4.0351	0.8948	23.70	-0.19	0.050			
0.1373	8787.20	4.0340	4.0341	0.8955	23.70	-0.19	0.050			
0.1382	8844.84	4.0330	4.0331	0.8964	23.71	-0.18	0.050			
0.1391	8902.42	4.0320	4.0320	0.8981	23.71	-0.18	0.050			
0.1400	8959.59	4.0310	4.0311	0.9002	23.71	-0.18	0.050			
0.1409	9017.36	4.0300	4.0299	0.9018	23.70	-0.19	0.050			
0.1418	9074.18	4.0290	4.0290	0.9046	23.71	-0.18	0.050			
0.1427	9131.70	4.0280	4.0280	0.9069	23.71	-0.18	0.050			
0.1436	9189.01	4.0270	4.0270	0.9071	23.70	-0.19	0.050			
0.1445	9246.76	4.0260	4.0260	0.9107	23.70	-0.19	0.050			
0.1454	9305.57	4.0250	4.0249	0.9104	23.70	-0.19	0.050			
0.1463	9364.23	4.0240	4.0239	0.9121	23.69	-0.20	0.050			
0.1472	9423.03	4.0230	4.0230	0.9133	23.70	-0.19	0.050			
0.1482	9482.54	4.0220	4.0219	0.9141	23.70	-0.19	0.050			
0.1491	9541.64	4.0210	4.0209	0.9138	23.69	-0.20	0.050			
0.1500	9601.04	4.0200	4.0200	0.9128	23.69	-0.20	0.050			
0.1509	9659.89	4.0190	4.0191	0.9108	23.68	-0.21	0.050			
0.1519	9719.07	4.0180	4.0181	0.9101	23.67	-0.22	0.050			
0.1528	9777.97	4.0170	4.0171	0.9080	23.67	-0.22	0.050			
0.1537	9836.52	4.0160	4.0162	0.9047	23.67	-0.22	0.050			
0.1546	9894.56	4.0150	4.0149	0.9028	23.66	-0.23	0.050			
0.1555	9951.79	4.0140	4.0139	0.8996	23.64	-0.25	0.050			
0.1564	10008.17	4.0130	4.0130	0.8983	23.65	-0.24	0.050			
0.1573	10064.76	4.0120	4.0120	0.8965	23.65	-0.24	0.050			
0.1581	10120.00	4.0110	4.0110	0.8972	23.64	-0.25	0.050			
0.1590	10176.49	4.0100	4.0100	0.8985	23.66	-0.23	0.050			
0.1599	10232.73	4.0090	4.0089	0.8983	23.65	-0.24	0.050			
0.1608	10290.03	4.0080	4.0080	0.9011	23.64	-0.25	0.050			
0.1617	10347.15	4.0070	4.0069	0.9047	23.64	-0.25	0.050			
0.1626	10404.96	4.0060	4.0059	0.9096	23.64	-0.25	0.050			
0.1635	10463.46	4.0050	4.0049	0.9142	23.62	-0.27	0.050			
0.1644	10521.92	4.0040	4.0039	0.9192	23.62	-0.27	0.050			
0.1653	10580.96	4.0030	4.0029	0.9241	23.62	-0.27	0.050			
0.1663	10640.78	4.0020	4.0020	0.9280	23.61	-0.28	0.050			
0.1672	10700.57	4.0010	4.0011	0.9323	23.60	-0.29	0.050			
0.1681	10761.20	4.0000	4.0001	0.9371	23.61	-0.28	0.050			
0.1691	10822.10	3.9990	3.9990	0.9400	23.60	-0.29	0.050			
0.1700	10883.08	3.9980	3.9980	0.9428	23.60	-0.29	0.050			
0.1710	10944.27	3.9970	3.9970	0.9431	23.60	-0.29	0.050			
0.1720	11004.82	3.9960	3.9960	0.9451	23.59	-0.30	0.050			
0.1729	11065.55	3.9950	3.9950	0.9450	23.59	-0.30	0.050			
0.1738	11125.82	3.9940	3.9940	0.9454	23.59	-0.30	0.050			
0.1748	11186.48	3.9930	3.9930	0.9443	23.59	-0.30	0.050			
0.1757	11246.84	3.9920	3.9921	0.9433	23.59	-0.30	0.050			
0.1767	11307.36	3.9910	3.9910	0.9423	23.59	-0.30	0.050			
0.1776	11367.78	3.9900	3.9901	0.9420	23.59	-0.30	0.050			
0.1786	11428.50	3.9890	3.9890	0.9432	23.59	-0.30	0.050			
0.1795	11488.73	3.9880	3.9879	0.9424	23.59	-0.30	0.050			
0.1804	11548.62	3.9870	3.9870	0.9406	23.59	-0.30	0.050			
0.1814	11608.66	3.9860	3.9860	0.9405	23.60	-0.29	0.050			
0.1823	11668.85	3.9850	3.9850	0.9393	23.59	-0.30	0.050			
0.1833	11728.72	3.9840	3.9841	0.9377	23.60	-0.29	0.050			
0.1842	11788.69	3.9830	3.9830	0.9382	23.60	-0.29	0.050			
0.1851	11847.86	3.9820	3.9820	0.9418	23.61	-0.28	0.050			
0.1861	11907.77	3.9810	3.9810	0.9445	23.62	-0.27	0.050			
0.1870	11968.31	3.9800	3.9800	0.9450	23.61	-0.28	0.050			
0.1879	12028.56	3.9790	3.9790	0.9470	23.62	-0.27	0.050			
0.1889	12088.65	3.9780	3.9779	0.9508	23.62	-0.27	0.050			
0.1898	12149.34	3.9770	3.9769	0.9532	23.62	-0.27	0.050			
0.1908	12210.08	3.9760	3.9760	0.9537	23.63	-0.26	0.050			
0.1917	12271.87	3.9750	3.9749	0.9559	23.64	-0.25	0.050			
0.1927	12334.00	3.9740	3.9739	0.9556	23.64	-0.25	0.050			
0.1937	12395.75	3.9730	3.9729	0.9568	23.64	-0.25	0.050	0.252	0.366	
0.1947	12457.74	3.9720	3.9721	0.9574	23.63	-0.26	0.050			
0.1956	12519.52	3.9710	3.9712	0.9570	23.64	-0.25	0.050			
0.1966	12581.37	3.9700	3.9699	0.9559	23.64	-0.25	0.050			
0.1975	12642.90	3.9690	3.9690	0.9549	23.65	-0.24	0.050			
0.1985	12704.28	3.9680	3.9681	0.9552	23.66	-0.23	0.050			
0.1995	12765.00	3.9670	3.9671	0.9554	23.67	-0.22	0.050			
0.2004	12826.03	3.9660	3.9660	0.9551	23.67	-0.22	0.050			
0.2014	12886.96	3.9650	3.9650	0.9543	23.67	-0.22	0.050			
0.2023	12947.69	3.9640	3.9640	0.9538	23.67	-0.22	0.050			
0.2032	13007.21	3.9630	3.9631	0.9530	23.69	-0.20	0.050			
0.2042	13066.83	3.9620	3.9619	0.9522	23.69	-0.20	0.050			
0.2051	13127.55	3.9610	3.9609	0.9546	23.69	-0.20	0.050			
0.2061	13188.80	3.9600	3.9599	0.9569	23.69	-0.20	0.050			
0.2070	13250.20	3.9590	3.9590	0.9567	23.69	-0.20	0.050			
0.2080	13311.11	3.9580	3.9580	0.9565	23.69	-0.20	0.050			
0.2089	13372.77	3.9570	3.9571	0.9602	23.69	-0.20	0.050			
0.2099	13434.49	3.9560	3.9560	0.9640	23.70	-0.19	0.050			
0.2109	13496.16	3.9550	3.9549	0.9684	23.69	-0.20	0.050			
0.2118	13558.19	3.9540	3.9540	0.9717	23.69	-0.20	0.050			
0.2128	13620.12	3.9530	3.9530	0.9745	23.69	-0.20	0.050			
0.2138	13682.94	3.9520	3.9522	0.9780	23.68	-0.21	0.050			
0.2148	13746.12	3.9510	3.9510	0.9794	23.69	-0.20	0.050			
0.2158	13809.21	3.9500	3.9500	0.9802	23.68	-0.21	0.050			
0.2168	13872.25	3.9490	3.9489	0.9808	23.67	-0.22	0.050			
0.2177	13934.89	3.9480	3.9480	0.9810	23.67	-0.22	0.050			
0.2187	13997.53	3.9470	3.9469	0.9823	23.67	-0.22	0.050			
0.2197	14060.54	3.9460	3.9460	0.9841	23.67	-0.22	0.050			
0.2207	14123.76	3.9450	3.9451	0.9861	23.67	-0.22	0.050			
0.2217	14186.55	3.9440	3.9440	0.9862	23.66	-0.23	0.050			
0.2227	14249.79	3.9430	3.9431	0.9875	23.65	-0.24	0.050			
0.2236	14313.27	3.9420	3.9421	0.9887	23.65	-0.24	0.050			
0.2246	14377.24	3.9410	3.9409	0.9910	23.65	-0.24	0.050			
0.2256	14440.28	3.9400	3.9399	0.9923	23.65	-0.24	0.050			
0.2266	14503.92	3.9390	3.9390	0.9947	23.65	-0.24	0.050			
0.2276	14567.15	3.9380	3.9380	0.9947	23.64	-0.25	0.050			
0.2286	14630.89	3.9370	3.9370	0.9943	23.65	-0.24	0.050			
0.2296	14694.01	3.9360	3.9359	0.9942	23.65	-0.24	0.050			
0.2306	14757.47	3.9350	3.9351	0.9945	23.64	-0.25	0.050			
0.2316	14821.68	3.9340	3.9340	0.9954	23.64	-0.25	0.050			
0.2326	14885.86	3.9330	3.9329	0.9969	23.64	-0.25	0.050			
0.2336	14949.85	3.9320	3.9320	0.9981	23.64	-0.25	0.050	0.253	0.427	
0.2346	15014.35	3.9310	3.9310	1.0004	23.63	-0.26	0.050			
0.2356	15078.29	3.9300	3.9301	1.0006	23.64	-0.25	0.050			
0.2366	15142.56	3.9290	3.9290	1.0004	23.63	-0.26	0.050			
0.2376	15206.58	3.9280	3.9280	0.9984	23.62	-0.27	0.050			
0.2386	15270.61	3.9270	3.9269	0.9980	23.64	-0.25	0.050			
0.2396	15334.36	3.9260	3.9260	0.9987	23.64	-0.25	0.050			
0.2406	15397.99	3.9250	3.9249	0.9983	23.64	-0.25	0.050			
0.2416	15461.96	3.9240	3.9240	0.9992	23.64	-0.25	0.050			
0.2426	15525.63	3.9230	3.9230	0.9994	23.64	-0.25	0.050			
0.2436	15589.45	3.9220	3.9220	1.0000	23.65	-0.24	0.050			
0.2446	15653.07	3.9210	3.9209	0.9997	23.64	-0.25	0.050			
0.2456	15716.85	3.9200	3.9201	0.9999	23.65	-0.24	0.050			
0.2466	15781.05	3.9190	3.9191	1.0001	23.65	-0.24	0.050			
0.2476	15845.34	3.9180	3.9178	1.0014	23.66	-0.23	0.050			
0.2486	15909.49	3.9170	3.9169	1.0026	23.67	-0.22	0.050			
0.2496	15974.09	3.9160	3.9160	1.0011	23.66	-0.23	0.050			
0.2506	16038.77	3.9150	3.9150	0.9989	23.67	-0.22	0.050			
0.2516	16103.69	3.9140	3.9140	0.9969	23.67	-0.22	0.050			
0.2526	16167.57	3.9130	3.9130	0.9947	23.67	-0.22	0.050			
0.2536	16230.83	3.9120	3.9120	0.9941	23.68	-0.21	0.050	0.240	0.439	
0.2546	16293.70	3.9110	3.9111	0.9960	23.68	-0.21	0.050			
0.2556	16356.87	3.9100	3.9100	0.9972	23.69	-0.20	0.050			
0.2566	16419.79	3.9090	3.9090	1.0018	23.68	-0.21	0.050			
0.2576	16483.32	3.9080	3.9081	1.0070	23.68	-0.21	0.050			
0.2585	16546.81	3.9070	3.9071	1.0077	23.69	-0.20	0.050			
0.2596	16611.21	3.9060	3.9060	1.0075	23.67	-0.22	0.050			
0.2606	16675.91	3.9050	3.9048	1.0088	23.69	-0.20	0.050			
0.2616	16741.29	3.9040	3.9038	1.0081	23.68	-0.21	0.050			
0.2626	16806.27	3.9030	3.9028	1.0082	23.68	-0.21	0.050			
0.2636	16870.99	3.9020	3.9019	1.0102	23.67	-0.22	0.050			
0.2646	16935.90	3.9010	3.9009	1.0123	23.67	-0.22	0.050			
0.2656	17000.78	3.9000	3.9001	1.0140	23.67	-0.22	0.050			
0.2667	17066.17	3.8990	3.8991	1.0168	23.67	-0.22	0.050			
0.2677	17131.73	3.8980	3.8983	1.0183	23.67	-0.22	0.050			
0.2687	17196.95	3.8970	3.8971	1.0218	23.67	-0.22	0.050			
0.2697	17263.14	3.8960	3.8960	1.0256	23.67	-0.22	0.050			
0.2708	17328.94	3.8950	3.8949	1.0269	23.67	-0.22	0.050			
0.2718	17394.06	3.8940	3.8938	1.0273	23.67	-0.22	0.050			
0.2728	17459.38	3.8930	3.8929	1.0263	23.67	-0.22	0.050			
0.2738	17524.21	3.8920	3.8920	1.0238	23.67	-0.22	0.050	0.254	0.416	
0.2748	17588.70	3.8910	3.8910	1.0234	23.67	-0.22	0.050			
0.2758	17654.25	3.8900	3.8900	1.0245	23.67	-0.22	0.050			
0.2769	17719.45	3.8890	3.8890	1.0264	23.67	-0.22	0.050			
0.2779	17785.58	3.8880	3.8879	1.0300	23.67	-0.22	0.050			
0.2789	17851.89	3.8870	3.8871	1.0360	23.67	-0.22	0.050			
0.2800	17918.87	3.8860	3.8860	1.0414	23.67	-0.22	0.050			
0.2810	17984.97	3.8850	3.8851	1.0481	23.67	-0.22	0.050			
0.2821	18052.11	3.8840	3.8841	1.0516	23.68	-0.21	0.050			
0.2831	18119.52	3.8830	3.8830	1.0530	23.67	-0.22	0.050			
0.2842	18186.81	3.8820	3.8819	1.0550	23.67	-0.22	0.050			
0.2852	18254.63	3.8810	3.8811	1.0570	23.67	-0.22	0.050			
0.2863	18322.98	3.8800	3.8799	1.0578	23.67	-0.22	0.050			
0.2874	18391.63	3.8790	3.8788	1.0567	23.69	-0.20	0.050			
0.2884	18460.30	3.8780	3.8778	1.0562	23.69	-0.20	0.050			
0.2895	18528.04	3.8770	3.8769	1.0553	23.68	-0.21	0.050			
0.2906	18596.24	3.8760	3.8761	1.0551	23.68	-0.21	0.050			
0.2916	18664.75	3.8750	3.8752	1.0548	23.68	-0.21	0.050			
0.2927	18732.80	3.8740	3.8742	1.0538	23.69	-0.20	0.050			
0.2937	18799.99	3.8730	3.8730	1.0549	23.69	-0.20	0.050	0.162	0.351	
0.2948	18866.64	3.8720	3.8721	1.0578	23.69	-0.20	0.050			
0.2958	18933.10	3.8710	3.8711	1.0584	23.69	-0.20	0.050			
0.2969	19000.65	3.8700	3.8699	1.0594	23.69	-0.20	0.050			
0.2979	19067.30	3.8690	3.8689	1.0592	23.69	-0.20	0.050			
0.2990	19133.92	3.8680	3.8679	1.0601	23.68	-0.21	0.050			
0.3000	19201.11	3.8670	3.8670	1.0587	23.69	-0.20	0.050			
0.3011	19268.88	3.8660	3.8660	1.0609	23.69	-0.20	0.050			
0.3021	19336.89	3.8650	3.8649	1.0610	23.69	-0.20	0.050			
0.3032	19405.40	3.8640	3.8639	1.0665	23.68	-0.21	0.050			
0.3043	19474.58	3.8630	3.8630	1.0700	23.69	-0.20	0.050			
0.3054	19543.47	3.8620	3.8621	1.0717	23.69	-0.20	0.050			
0.3065	19613.81	3.8610	3.8611	1.0728	23.69	-0.20	0.050			
0.3076	19683.71	3.8600	3.8600	1.0729	23.68	-0.21	0.050			
0.3086	19753.30	3.8590	3.8591	1.0731	23.69	-0.20	0.050			
