Ah_balance (normalized)	Ah_balance (mAh)	Voltage - fit (V)	Voltage -  interpolate (V)	dQ/dV (1/V)	Temperature (°C)	Temperature - diff (°C)	Current (C)	R_DC 0ms (mOhm)	R_DC 50ms (mOhm)	R_DC 50 ms PEC (mOhm)
-0.0076	-484.35	4.2000	4.1901	0.7524	24.13	-0.12	-0.047	0.131	0.463	
-0.0068	-435.83	4.1990	4.1989	0.7509	24.13	-0.12	0.050			
-0.0061	-387.51	4.1980	4.1980	0.7593	24.12	-0.13	0.050			
-0.0053	-338.74	4.1970	4.1970	0.7666	24.11	-0.14	0.050			
-0.0045	-288.75	4.1960	4.1959	0.7780	24.10	-0.15	0.050			
-0.0037	-238.35	4.1950	4.1950	0.7854	24.09	-0.16	0.050			
-0.0029	-187.04	4.1940	4.1941	0.7915	24.06	-0.19	0.050			
-0.0021	-135.10	4.1930	4.1929	0.7949	24.05	-0.20	0.050			
-0.0013	-83.04	4.1920	4.1918	0.7956	24.03	-0.22	0.050			
-0.0005	-31.77	4.1910	4.1909	0.7954	24.01	-0.24	0.050			
0.0003	20.09	4.1900	4.1900	0.7925	23.99	-0.26	0.050			
0.0011	72.02	4.1890	4.1889	0.7918	23.97	-0.28	0.050			
0.0019	123.23	4.1880	4.1881	0.7898	23.96	-0.29	0.050			
0.0027	173.94	4.1870	4.1872	0.7875	23.95	-0.30	0.050			
0.0035	224.36	4.1860	4.1861	0.7846	23.93	-0.32	0.050			
0.0043	274.49	4.1850	4.1851	0.7820	23.93	-0.32	0.050			
0.0051	324.34	4.1840	4.1842	0.7790	23.92	-0.33	0.050	0.314	0.360	
0.0059	374.59	4.1830	4.1830	0.7759	23.90	-0.35	0.050			
0.0066	423.91	4.1820	4.1821	0.7727	23.90	-0.35	0.050			
0.0074	472.94	4.1810	4.1809	0.7689	23.90	-0.35	0.050			
0.0081	520.98	4.1800	4.1799	0.7663	23.91	-0.34	0.050			
0.0089	567.92	4.1790	4.1789	0.7648	23.91	-0.34	0.050			
0.0096	615.84	4.1780	4.1780	0.7648	23.93	-0.32	0.050			
0.0104	664.09	4.1770	4.1771	0.7664	23.92	-0.33	0.050			
0.0111	712.46	4.1760	4.1760	0.7673	23.93	-0.32	0.050			
0.0119	761.19	4.1750	4.1751	0.7716	23.93	-0.32	0.050			
0.0127	810.50	4.1740	4.1740	0.7751	23.95	-0.30	0.050			
0.0134	860.18	4.1730	4.1729	0.7800	23.95	-0.30	0.050			
0.0142	910.02	4.1720	4.1720	0.7822	23.96	-0.29	0.050			
0.0150	960.70	4.1710	4.1708	0.7860	23.97	-0.28	0.050			
0.0158	1011.35	4.1700	4.1699	0.7893	23.98	-0.27	0.050			
0.0166	1062.46	4.1690	4.1689	0.7932	23.99	-0.26	0.050			
0.0174	1113.47	4.1680	4.1680	0.7938	24.00	-0.25	0.050			
0.0182	1164.46	4.1670	4.1671	0.7962	24.02	-0.23	0.050			
0.0190	1216.04	4.1660	4.1660	0.7982	24.04	-0.21	0.050			
0.0198	1267.88	4.1650	4.1651	0.7989	24.06	-0.19	0.050			
0.0206	1319.79	4.1640	4.1641	0.7994	24.08	-0.17	0.050			
0.0214	1371.55	4.1630	4.1631	0.8003	24.09	-0.16	0.050			
0.0222	1423.38	4.1620	4.1620	0.8017	24.11	-0.14	0.050			
0.0230	1474.30	4.1610	4.1610	0.8029	24.12	-0.13	0.050			
0.0238	1525.14	4.1600	4.1600	0.8023	24.13	-0.12	0.050			
0.0246	1576.12	4.1590	4.1591	0.8006	24.14	-0.11	0.050			
0.0254	1627.13	4.1580	4.1581	0.8011	24.17	-0.08	0.050	0.161	0.331	
0.0262	1678.31	4.1570	4.1570	0.8012	24.17	-0.08	0.050			
0.0270	1729.56	4.1560	4.1560	0.8016	24.18	-0.07	0.050			
0.0278	1780.55	4.1550	4.1549	0.8010	24.19	-0.06	0.050			
0.0286	1831.96	4.1540	4.1540	0.8012	24.19	-0.06	0.050			
0.0294	1883.49	4.1530	4.1528	0.8014	24.19	-0.06	0.050			
0.0302	1934.95	4.1520	4.1521	0.8011	24.17	-0.08	0.050			
0.0310	1986.77	4.1510	4.1511	0.8002	24.15	-0.10	0.050			
0.0318	2038.13	4.1500	4.1500	0.7987	24.14	-0.11	0.050			
0.0327	2089.71	4.1490	4.1490	0.7977	24.13	-0.12	0.050			
0.0335	2141.38	4.1480	4.1480	0.7968	24.12	-0.13	0.050			
0.0343	2192.60	4.1470	4.1470	0.7951	24.10	-0.15	0.050			
0.0351	2243.80	4.1460	4.1460	0.7921	24.09	-0.16	0.050			
0.0359	2294.40	4.1450	4.1451	0.7916	24.07	-0.18	0.050			
0.0366	2344.55	4.1440	4.1440	0.7901	24.05	-0.20	0.050			
0.0374	2394.27	4.1430	4.1430	0.7910	24.04	-0.21	0.050			
0.0382	2443.91	4.1420	4.1420	0.7902	24.02	-0.23	0.050			
0.0390	2493.29	4.1410	4.1411	0.7899	24.00	-0.25	0.050			
0.0397	2543.58	4.1400	4.1400	0.7912	23.99	-0.26	0.050			
0.0405	2594.26	4.1390	4.1390	0.7918	23.98	-0.27	0.050			
0.0413	2644.83	4.1380	4.1380	0.7912	23.96	-0.29	0.050			
0.0421	2695.84	4.1370	4.1369	0.7917	23.95	-0.30	0.050			
0.0429	2746.46	4.1360	4.1357	0.7928	23.93	-0.32	0.050			
0.0437	2797.36	4.1350	4.1350	0.7935	23.93	-0.32	0.050			
0.0445	2848.37	4.1340	4.1340	0.7948	23.92	-0.33	0.050			
0.0453	2899.50	4.1330	4.1330	0.7958	23.92	-0.33	0.050	0.291	0.540	
0.0461	2950.81	4.1320	4.1320	0.7975	23.90	-0.35	0.050			
0.0469	3002.24	4.1310	4.1310	0.7983	23.90	-0.35	0.050			
0.0477	3053.88	4.1300	4.1300	0.7990	23.93	-0.32	0.050			
0.0485	3105.44	4.1290	4.1291	0.7991	23.94	-0.31	0.050			
0.0493	3156.35	4.1280	4.1278	0.8008	23.95	-0.30	0.050			
0.0501	3207.07	4.1270	4.1269	0.8026	23.96	-0.29	0.050			
0.0509	3258.11	4.1260	4.1260	0.8035	23.98	-0.27	0.050			
0.0517	3308.47	4.1250	4.1249	0.8039	24.00	-0.25	0.050			
0.0525	3359.52	4.1240	4.1240	0.8049	24.02	-0.23	0.050			
0.0533	3410.38	4.1230	4.1231	0.8059	24.04	-0.21	0.050			
0.0541	3462.61	4.1220	4.1219	0.8055	24.05	-0.20	0.050			
0.0549	3514.90	4.1210	4.1210	0.8059	24.05	-0.20	0.050			
0.0557	3566.93	4.1200	4.1198	0.8070	24.07	-0.18	0.050			
0.0566	3619.33	4.1190	4.1189	0.8099	24.08	-0.17	0.050			
0.0574	3671.26	4.1180	4.1180	0.8125	24.09	-0.16	0.050			
0.0582	3723.41	4.1170	4.1171	0.8135	24.10	-0.15	0.050			
0.0590	3775.60	4.1160	4.1161	0.8136	24.11	-0.14	0.050			
0.0598	3828.03	4.1150	4.1151	0.8132	24.12	-0.13	0.050			
0.0606	3880.60	4.1140	4.1140	0.8117	24.13	-0.12	0.050			
0.0615	3932.97	4.1130	4.1131	0.8104	24.13	-0.12	0.050			
0.0623	3985.70	4.1120	4.1120	0.8077	24.14	-0.11	0.050			
0.0631	4037.82	4.1110	4.1108	0.8049	24.14	-0.11	0.050			
0.0639	4089.02	4.1100	4.1099	0.8034	24.15	-0.10	0.050			
0.0647	4140.12	4.1090	4.1090	0.8008	24.14	-0.11	0.050			
0.0655	4190.49	4.1080	4.1079	0.7972	24.13	-0.12	0.050			
0.0663	4240.96	4.1070	4.1071	0.7956	24.13	-0.12	0.050			
0.0671	4291.52	4.1060	4.1062	0.7936	24.11	-0.14	0.050			
0.0679	4342.62	4.1050	4.1051	0.7923	24.10	-0.15	0.050			
0.0686	4393.49	4.1040	4.1039	0.7909	24.08	-0.17	0.050			
0.0694	4444.27	4.1030	4.1030	0.7887	24.06	-0.19	0.050			
0.0702	4495.29	4.1020	4.1019	0.7870	24.04	-0.21	0.050			
0.0710	4545.43	4.1010	4.1008	0.7846	24.03	-0.22	0.050			
0.0718	4595.05	4.1000	4.0998	0.7829	24.01	-0.24	0.050			
0.0726	4644.12	4.0990	4.0991	0.7811	24.00	-0.25	0.050			
0.0733	4693.01	4.0980	4.0982	0.7797	23.99	-0.26	0.050			
0.0741	4742.71	4.0970	4.0971	0.7817	23.98	-0.27	0.050			
0.0749	4791.98	4.0960	4.0960	0.7848	23.98	-0.27	0.050			
0.0757	4842.14	4.0950	4.0950	0.7868	23.97	-0.28	0.050			
0.0764	4892.79	4.0940	4.0940	0.7888	23.96	-0.29	0.050			
0.0772	4942.79	4.0930	4.0930	0.7927	23.97	-0.28	0.050			
0.0780	4993.34	4.0920	4.0918	0.7950	23.98	-0.27	0.050			
0.0788	5044.18	4.0910	4.0910	0.7979	23.98	-0.27	0.050			
0.0796	5094.29	4.0900	4.0901	0.7986	23.99	-0.26	0.050			
0.0804	5145.36	4.0890	4.0890	0.8016	24.01	-0.24	0.050			
0.0812	5197.27	4.0880	4.0879	0.8045	24.03	-0.22	0.050			
0.0820	5249.34	4.0870	4.0870	0.8075	24.03	-0.22	0.050			
0.0828	5301.84	4.0860	4.0859	0.8096	24.05	-0.20	0.050			
0.0837	5354.54	4.0850	4.0850	0.8114	24.06	-0.19	0.050			
0.0845	5407.08	4.0840	4.0840	0.8136	24.07	-0.18	0.050			
0.0853	5459.58	4.0830	4.0831	0.8147	24.09	-0.16	0.050	0.219	0.361	
0.0861	5512.71	4.0820	4.0820	0.8156	24.10	-0.15	0.050			
0.0869	5564.74	4.0810	4.0810	0.8141	24.11	-0.14	0.050			
0.0878	5616.94	4.0800	4.0800	0.8136	24.13	-0.12	0.050			
0.0886	5669.43	4.0790	4.0790	0.8118	24.14	-0.11	0.050			
0.0894	5721.26	4.0780	4.0780	0.8097	24.15	-0.10	0.050			
0.0902	5772.90	4.0770	4.0769	0.8077	24.17	-0.08	0.050			
0.0910	5824.38	4.0760	4.0760	0.8067	24.17	-0.08	0.050			
0.0918	5874.85	4.0750	4.0749	0.8096	24.17	-0.08	0.050			
0.0926	5926.58	4.0740	4.0740	0.8108	24.18	-0.07	0.050			
0.0934	5977.74	4.0730	4.0731	0.8094	24.19	-0.06	0.050			
0.0942	6029.56	4.0720	4.0720	0.8096	24.18	-0.07	0.050			
0.0950	6081.85	4.0710	4.0710	0.8100	24.17	-0.08	0.050			
0.0958	6134.15	4.0700	4.0700	0.8084	24.17	-0.08	0.050			
0.0967	6186.67	4.0690	4.0688	0.8060	24.18	-0.07	0.050			
0.0975	6238.76	4.0680	4.0679	0.8038	24.17	-0.08	0.050			
0.0983	6290.54	4.0670	4.0668	0.8039	24.16	-0.09	0.050			
0.0991	6341.65	4.0660	4.0659	0.8034	24.15	-0.10	0.050			
0.0999	6392.73	4.0650	4.0651	0.8029	24.14	-0.11	0.050			
0.1007	6443.56	4.0640	4.0642	0.8027	24.13	-0.12	0.050			
0.1015	6494.42	4.0630	4.0632	0.8046	24.13	-0.12	0.050			
0.1023	6546.16	4.0620	4.0621	0.8050	24.12	-0.13	0.050			
0.1031	6597.74	4.0610	4.0609	0.8044	24.10	-0.15	0.050			
0.1039	6649.35	4.0600	4.0600	0.8034	24.09	-0.16	0.050			
0.1047	6700.39	4.0590	4.0587	0.8042	24.08	-0.17	0.050			
0.1055	6751.16	4.0580	4.0578	0.8045	24.06	-0.19	0.050	0.311	0.561	
0.1063	6802.14	4.0570	4.0570	0.8049	24.05	-0.20	0.050			
0.1071	6853.14	4.0560	4.0560	0.8058	24.03	-0.22	0.050			
0.1079	6903.45	4.0550	4.0552	0.8061	24.01	-0.24	0.050			
0.1087	6955.48	4.0540	4.0539	0.8085	24.01	-0.24	0.050			
0.1095	7008.32	4.0530	4.0533	0.8116	23.98	-0.27	0.050			
0.1103	7061.36	4.0520	4.0521	0.8137	23.98	-0.27	0.050			
0.1112	7114.14	4.0510	4.0509	0.8148	23.96	-0.29	0.050			
0.1120	7166.84	4.0500	4.0499	0.8164	23.96	-0.29	0.050			
0.1128	7219.55	4.0490	4.0489	0.8169	23.95	-0.30	0.050			
0.1136	7271.46	4.0480	4.0480	0.8163	23.95	-0.30	0.050			
0.1144	7322.97	4.0470	4.0471	0.8165	23.93	-0.32	0.050			
0.1152	7375.02	4.0460	4.0460	0.8163	23.93	-0.32	0.050			
0.1160	7427.06	4.0450	4.0451	0.8165	23.93	-0.32	0.050			
0.1169	7479.33	4.0440	4.0440	0.8167	23.93	-0.32	0.050			
0.1177	7531.89	4.0430	4.0431	0.8175	23.92	-0.33	0.050			
0.1185	7583.41	4.0420	4.0420	0.8222	23.93	-0.32	0.050			
0.1193	7635.85	4.0410	4.0407	0.8259	23.93	-0.32	0.050			
0.1201	7687.76	4.0400	4.0401	0.8307	23.93	-0.32	0.050			
0.1209	7740.36	4.0390	4.0390	0.8309	23.93	-0.32	0.050			
0.1218	7793.32	4.0380	4.0380	0.8330	23.94	-0.31	0.050			
0.1226	7847.25	4.0370	4.0371	0.8351	23.95	-0.30	0.050			
0.1235	7902.50	4.0360	4.0360	0.8330	23.95	-0.30	0.050			
0.1243	7956.95	4.0350	4.0350	0.8320	23.96	-0.29	0.050			
0.1252	8010.71	4.0340	4.0338	0.8318	23.96	-0.29	0.050	0.204	0.407	
0.1260	8065.36	4.0330	4.0329	0.8322	23.97	-0.28	0.050			
0.1269	8119.15	4.0320	4.0321	0.8310	23.98	-0.27	0.050			
0.1277	8172.81	4.0310	4.0312	0.8290	23.98	-0.27	0.050			
0.1285	8226.04	4.0300	4.0302	0.8261	23.98	-0.27	0.050			
0.1294	8279.30	4.0290	4.0292	0.8233	24.00	-0.25	0.050			
0.1302	8331.58	4.0280	4.0280	0.8202	24.00	-0.25	0.050			
0.1310	8384.00	4.0270	4.0270	0.8173	24.01	-0.24	0.050			
0.1318	8436.25	4.0260	4.0258	0.8144	24.02	-0.23	0.050			
0.1326	8486.87	4.0250	4.0250	0.8156	24.02	-0.23	0.050			
0.1334	8538.09	4.0240	4.0240	0.8148	24.03	-0.22	0.050			
0.1342	8588.08	4.0230	4.0229	0.8153	24.03	-0.22	0.050			
0.1350	8637.67	4.0220	4.0220	0.8128	24.03	-0.22	0.050			
0.1358	8689.17	4.0210	4.0210	0.8154	24.04	-0.21	0.050			
0.1366	8740.94	4.0200	4.0202	0.8175	24.03	-0.22	0.050			
0.1374	8793.87	4.0190	4.0189	0.8224	24.03	-0.22	0.050			
0.1382	8847.34	4.0180	4.0179	0.8273	24.03	-0.22	0.050			
0.1391	8900.68	4.0170	4.0169	0.8313	24.03	-0.22	0.050			
0.1399	8954.83	4.0160	4.0159	0.8372	24.03	-0.22	0.050			
0.1408	9008.88	4.0150	4.0152	0.8412	24.02	-0.23	0.050			
0.1416	9062.82	4.0140	4.0140	0.8438	24.01	-0.24	0.050			
0.1424	9116.80	4.0130	4.0131	0.8457	24.00	-0.25	0.050			
0.1433	9172.04	4.0120	4.0121	0.8472	23.99	-0.26	0.050			
0.1442	9226.70	4.0110	4.0110	0.8497	23.98	-0.27	0.050			
0.1450	9281.44	4.0100	4.0099	0.8520	23.98	-0.27	0.050	0.247	0.356	
0.1459	9336.17	4.0090	4.0089	0.8540	23.97	-0.28	0.050			
0.1467	9391.21	4.0080	4.0078	0.8555	23.96	-0.29	0.050			
0.1476	9445.87	4.0070	4.0071	0.8557	23.96	-0.29	0.050			
0.1484	9500.45	4.0060	4.0060	0.8567	23.95	-0.30	0.050			
0.1493	9554.42	4.0050	4.0049	0.8559	23.95	-0.30	0.050			
0.1501	9609.55	4.0040	4.0040	0.8556	23.95	-0.30	0.050			
0.1510	9664.37	4.0030	4.0030	0.8568	23.95	-0.30	0.050			
0.1519	9719.84	4.0020	4.0019	0.8572	23.96	-0.29	0.050			
0.1527	9775.40	4.0010	4.0010	0.8556	23.98	-0.27	0.050			
0.1536	9830.92	4.0000	3.9999	0.8552	24.01	-0.24	0.050			
0.1545	9886.30	3.9990	3.9991	0.8521	24.01	-0.24	0.050			
0.1553	9941.58	3.9980	3.9980	0.8481	24.03	-0.22	0.050			
0.1562	9996.35	3.9970	3.9969	0.8427	24.04	-0.21	0.050			
0.1570	10050.81	3.9960	3.9960	0.8364	24.05	-0.20	0.050			
0.1579	10104.85	3.9950	3.9950	0.8325	24.06	-0.19	0.050			
0.1587	10158.02	3.9940	3.9940	0.8275	24.06	-0.19	0.050			
0.1595	10210.52	3.9930	3.9931	0.8243	24.09	-0.16	0.050			
0.1604	10262.76	3.9920	3.9921	0.8223	24.09	-0.16	0.050			
0.1611	10313.05	3.9910	3.9909	0.8229	24.10	-0.15	0.050			
0.1619	10364.28	3.9900	3.9902	0.8223	24.11	-0.14	0.050			
0.1627	10414.46	3.9890	3.9892	0.8239	24.11	-0.14	0.050			
0.1635	10466.01	3.9880	3.9879	0.8268	24.12	-0.13	0.050			
0.1643	10517.33	3.9870	3.9869	0.8284	24.13	-0.12	0.050			
0.1652	10570.13	3.9860	3.9859	0.8324	24.14	-0.11	0.050	0.088	0.311	
0.1660	10623.30	3.9850	3.9849	0.8361	24.16	-0.09	0.050			
0.1668	10676.93	3.9840	3.9838	0.8397	24.18	-0.07	0.050			
0.1677	10731.28	3.9830	3.9828	0.8441	24.19	-0.06	0.050			
0.1685	10786.15	3.9820	3.9820	0.8478	24.19	-0.06	0.050			
0.1694	10841.76	3.9810	3.9811	0.8533	24.19	-0.06	0.050			
0.1703	10896.91	3.9800	3.9801	0.8589	24.19	-0.06	0.050			
0.1711	10953.01	3.9790	3.9790	0.8637	24.21	-0.04	0.050			
0.1720	11009.57	3.9780	3.9782	0.8675	24.21	-0.04	0.050			
0.1729	11066.14	3.9770	3.9771	0.8690	24.21	-0.04	0.050			
0.1738	11122.62	3.9760	3.9760	0.8719	24.21	-0.04	0.050			
0.1747	11178.42	3.9750	3.9749	0.8725	24.21	-0.04	0.050			
0.1755	11233.95	3.9740	3.9739	0.8732	24.19	-0.06	0.050			
0.1764	11289.58	3.9730	3.9730	0.8720	24.18	-0.07	0.050			
0.1773	11344.54	3.9720	3.9718	0.8704	24.17	-0.08	0.050			
0.1781	11399.61	3.9710	3.9710	0.8690	24.16	-0.09	0.050			
0.1790	11455.30	3.9700	3.9700	0.8696	24.14	-0.11	0.050			
0.1799	11510.89	3.9690	3.9691	0.8699	24.13	-0.12	0.050			
0.1807	11566.50	3.9680	3.9681	0.8705	24.12	-0.13	0.050			
0.1816	11622.87	3.9670	3.9669	0.8724	24.10	-0.15	0.050			
0.1825	11679.38	3.9660	3.9660	0.8737	24.08	-0.17	0.050			
0.1834	11735.71	3.9650	3.9651	0.8730	24.06	-0.19	0.050			
0.1843	11792.02	3.9640	3.9639	0.8720	24.05	-0.20	0.050			
0.1851	11848.47	3.9630	3.9629	0.8699	24.04	-0.21	0.050	0.283	0.479	
0.1860	11905.35	3.9620	3.9620	0.8651	24.03	-0.22	0.050			
0.1869	11960.73	3.9610	3.9610	0.8601	24.03	-0.22	0.050			
0.1877	12015.22	3.9600	3.9601	0.8582	24.01	-0.24	0.050			
0.1886	12070.33	3.9590	3.9590	0.8561	24.00	-0.25	0.050			
0.1895	12125.19	3.9580	3.9581	0.8539	23.99	-0.26	0.050			
0.1903	12179.43	3.9570	3.9570	0.8514	23.98	-0.27	0.050			
0.1911	12233.06	3.9560	3.9560	0.8477	23.98	-0.27	0.050			
0.1920	12286.95	3.9550	3.9551	0.8447	23.98	-0.27	0.050			
0.1928	12340.69	3.9540	3.9541	0.8420	24.00	-0.25	0.050			
0.1937	12394.10	3.9530	3.9529	0.8416	24.01	-0.24	0.050			
0.1945	12447.50	3.9520	3.9520	0.8406	24.01	-0.24	0.050			
0.1953	12500.03	3.9510	3.9509	0.8407	24.03	-0.22	0.050			
0.1961	12553.36	3.9500	3.9501	0.8420	24.03	-0.22	0.050			
0.1970	12606.25	3.9490	3.9492	0.8447	24.03	-0.22	0.050			
0.1978	12659.07	3.9480	3.9481	0.8469	24.03	-0.22	0.050			
0.1986	12712.97	3.9470	3.9469	0.8519	24.04	-0.21	0.050			
0.1995	12766.95	3.9460	3.9461	0.8561	24.05	-0.20	0.050			
0.2003	12821.38	3.9450	3.9450	0.8639	24.05	-0.20	0.050			
0.2012	12876.61	3.9440	3.9439	0.8715	24.06	-0.19	0.050			
0.2021	12932.38	3.9430	3.9430	0.8792	24.07	-0.18	0.050			
0.2030	12988.86	3.9420	3.9418	0.8861	24.09	-0.16	0.050			
0.2038	13046.38	3.9410	3.9411	0.8906	24.09	-0.16	0.050			
0.2047	13103.54	3.9400	3.9399	0.8931	24.10	-0.15	0.050			
0.2057	13161.96	3.9390	3.9390	0.8978	24.11	-0.14	0.050	0.210	0.336	
0.2066	13220.82	3.9380	3.9381	0.9002	24.11	-0.14	0.050			
0.2075	13280.30	3.9370	3.9369	0.9020	24.11	-0.14	0.050			
0.2084	13339.17	3.9360	3.9359	0.9032	24.11	-0.14	0.050			
0.2093	13397.74	3.9350	3.9350	0.9024	24.11	-0.14	0.050			
0.2103	13456.31	3.9340	3.9342	0.9023	24.09	-0.16	0.050			
0.2112	13514.82	3.9330	3.9331	0.9014	24.09	-0.16	0.050			
0.2121	13572.74	3.9320	3.9321	0.8985	24.07	-0.18	0.050			
0.2130	13630.76	3.9310	3.9310	0.8950	24.06	-0.19	0.050			
0.2139	13687.68	3.9300	3.9300	0.8928	24.05	-0.20	0.050			
0.2147	13743.52	3.9290	3.9289	0.8915	24.04	-0.21	0.050			
0.2156	13799.68	3.9280	3.9278	0.8895	24.02	-0.23	0.050			
0.2165	13855.89	3.9270	3.9270	0.8869	24.00	-0.25	0.050			
0.2174	13911.63	3.9260	3.9259	0.8864	23.97	-0.28	0.050			
0.2182	13967.26	3.9250	3.9250	0.8832	23.95	-0.30	0.050			
0.2191	14023.44	3.9240	3.9241	0.8826	23.95	-0.30	0.050			
0.2200	14080.80	3.9230	3.9231	0.8794	23.95	-0.30	0.050			
0.2209	14137.79	3.9220	3.9219	0.8789	23.94	-0.31	0.050			
0.2218	14194.47	3.9210	3.9207	0.8801	23.93	-0.32	0.050			
0.2227	14250.79	3.9200	3.9200	0.8821	23.93	-0.32	0.050			
0.2235	14306.63	3.9190	3.9191	0.8855	23.93	-0.32	0.050			
0.2244	14363.20	3.9180	3.9182	0.8870	23.93	-0.32	0.050			
0.2253	14419.41	3.9170	3.9173	0.8882	23.93	-0.32	0.050			
0.2262	14476.11	3.9160	3.9159	0.8887	23.95	-0.30	0.050			
0.2271	14533.24	3.9150	3.9151	0.8886	23.95	-0.30	0.050			
0.2280	14590.14	3.9140	3.9140	0.8893	23.95	-0.30	0.050			
0.2289	14646.92	3.9130	3.9128	0.8912	23.96	-0.29	0.050			
0.2297	14703.60	3.9120	3.9118	0.8936	23.97	-0.28	0.050			
0.2306	14760.68	3.9110	3.9109	0.8958	23.97	-0.28	0.050			
0.2315	14817.23	3.9100	3.9100	0.8968	23.98	-0.27	0.050			
0.2324	14874.03	3.9090	3.9090	0.8984	24.00	-0.25	0.050			
0.2333	14932.27	3.9080	3.9081	0.9010	24.01	-0.24	0.050			
0.2342	14990.56	3.9070	3.9070	0.9030	24.02	-0.23	0.050			
0.2351	15049.30	3.9060	3.9061	0.9056	24.04	-0.21	0.050			
0.2361	15108.38	3.9050	3.9049	0.9048	24.05	-0.20	0.050			
0.2370	15167.45	3.9040	3.9039	0.9057	24.06	-0.19	0.050			
0.2379	15226.36	3.9030	3.9030	0.9073	24.09	-0.16	0.050			
0.2388	15284.18	3.9020	3.9020	0.9051	24.10	-0.15	0.050			
0.2397	15341.62	3.9010	3.9011	0.9010	24.12	-0.13	0.050			
0.2406	15398.59	3.9000	3.9001	0.8999	24.13	-0.12	0.050			
0.2415	15455.07	3.8990	3.8991	0.9014	24.14	-0.11	0.050			
0.2424	15512.30	3.8980	3.8979	0.9045	24.15	-0.10	0.050			
0.2433	15569.64	3.8970	3.8970	0.9085	24.17	-0.08	0.050			
0.2442	15627.55	3.8960	3.8960	0.9114	24.16	-0.09	0.050			
0.2451	15686.06	3.8950	3.8950	0.9137	24.15	-0.10	0.050	0.184	0.432	
0.2460	15744.03	3.8940	3.8938	0.9136	24.14	-0.11	0.050			
0.2469	15802.48	3.8930	3.8930	0.9144	24.13	-0.12	0.050			
0.2478	15861.91	3.8920	3.8920	0.9110	24.13	-0.12	0.050			
0.2488	15920.46	3.8910	3.8908	0.9112	24.11	-0.14	0.050			
0.2497	15979.26	3.8900	3.8900	0.9121	24.09	-0.16	0.050			
0.2506	16038.23	3.8890	3.8890	0.9135	24.08	-0.17	0.050			
0.2515	16097.97	3.8880	3.8883	0.9142	24.06	-0.19	0.050			
0.2525	16157.36	3.8870	3.8871	0.9132	24.04	-0.21	0.050			
0.2534	16216.40	3.8860	3.8862	0.9113	24.02	-0.23	0.050			
0.2543	16276.18	3.8850	3.8851	0.9079	24.00	-0.25	0.050			
0.2552	16334.71	3.8840	3.8841	0.9033	23.98	-0.27	0.050			
0.2561	16392.35	3.8830	3.8828	0.8985	23.96	-0.29	0.050			
0.2570	16448.48	3.8820	3.8818	0.8978	23.95	-0.30	0.050			
0.2579	16504.32	3.8810	3.8809	0.8998	23.93	-0.32	0.050			
0.2587	16559.01	3.8800	3.8801	0.9013	23.90	-0.35	0.050			
0.2596	16614.63	3.8790	3.8792	0.9000	23.90	-0.35	0.050			
0.2605	16671.45	3.8780	3.8781	0.9027	23.89	-0.36	0.050			
0.2614	16729.25	3.8770	3.8770	0.9033	23.90	-0.35	0.050			
0.2623	16787.39	3.8760	3.8760	0.9061	23.89	-0.36	0.050			
0.2632	16846.68	3.8750	3.8749	0.9070	23.91	-0.34	0.050			
0.2642	16905.63	3.8740	3.8737	0.9096	23.93	-0.32	0.050			
0.2651	16964.29	3.8730	3.8728	0.9112	23.94	-0.31	0.050	0.157	0.488	
0.2660	17023.81	3.8720	3.8720	0.9125	23.96	-0.29	0.050			
0.2669	17082.15	3.8710	3.8710	0.9125	23.98	-0.27	0.050			
0.2678	17140.71	3.8700	3.8703	0.9131	24.00	-0.25	0.050			
0.2687	17199.38	3.8690	3.8692	0.9152	24.03	-0.22	0.050			
0.2697	17258.36	3.8680	3.8682	0.9205	24.04	-0.21	0.050			
0.2706	17317.06	3.8670	3.8670	0.9246	24.07	-0.18	0.050			
0.2715	17376.23	3.8660	3.8660	0.9263	24.09	-0.16	0.050			
0.2724	17435.13	3.8650	3.8649	0.9296	24.11	-0.14	0.050			
0.2734	17494.40	3.8640	3.8640	0.9293	24.12	-0.13	0.050			
0.2743	17553.46	3.8630	3.8630	0.9281	24.14	-0.11	0.050			
0.2752	17611.96	3.8620	3.8619	0.9237	24.15	-0.10	0.050			
0.2761	17670.35	3.8610	3.8610	0.9228	24.17	-0.08	0.050			
0.2770	17729.43	3.8600	3.8599	0.9238	24.17	-0.08	0.050			
0.2780	17789.19	3.8590	3.8589	0.9279	24.19	-0.06	0.050			
