Ah_balance (normalized)	Ah_balance (mAh)	Voltage - fit (V)	Voltage -  interpolate (V)	dQ/dV (1/V)	Temperature (°C)	Temperature - diff (°C)	Current (C)	R_DC 0ms (mOhm)	R_DC 50ms (mOhm)	R_DC 50 ms PEC (mOhm)
0.0939	6012.31	4.0070	4.0070	-0.0621	6.01	0.04	-0.750			
0.0942	6028.64	4.0040	4.0040	-0.0985	6.01	0.04	-0.750			
0.0945	6051.13	4.0010	4.0008	-0.1268	6.00	0.03	-0.750			
0.0950	6078.16	3.9980	3.9980	-0.1522	6.00	0.03	-0.750			
0.0955	6109.67	3.9950	3.9951	-0.1780	6.00	0.03	-0.750			
0.0960	6146.39	3.9920	3.9921	-0.2030	6.00	0.03	-0.750			
0.0967	6188.08	3.9890	3.9890	-0.2286	6.00	0.03	-0.750			
0.0974	6234.02	3.9860	3.9860	-0.2525	6.00	0.03	-0.750			
0.0982	6285.23	3.9830	3.9830	-0.2754	5.99	0.02	-0.750			
0.0991	6340.43	3.9800	3.9800	-0.3001	5.99	0.02	-0.750			
0.1000	6401.06	3.9770	3.9771	-0.3218	5.99	0.02	-0.750			
0.1010	6464.54	3.9740	3.9739	-0.3459	5.98	0.01	-0.750			
0.1021	6532.73	3.9710	3.9710	-0.3704	5.98	0.01	-0.750			
0.1032	6606.07	3.9680	3.9680	-0.3940	5.98	0.01	-0.750			
0.1044	6683.83	3.9650	3.9649	-0.4190	5.97	0.00	-0.750			
0.1057	6766.90	3.9620	3.9621	-0.4438	5.97	-0.00	-0.750			
0.1071	6854.56	3.9590	3.9590	-0.4667	5.96	-0.01	-0.750			
0.1085	6947.15	3.9560	3.9560	-0.4903	5.96	-0.01	-0.750			
0.1100	7042.53	3.9530	3.9530	-0.5122	5.96	-0.01	-0.750			
0.1116	7142.97	3.9500	3.9501	-0.5374	5.95	-0.02	-0.750			
0.1133	7249.50	3.9470	3.9470	-0.5589	5.94	-0.03	-0.750			
0.1150	7359.91	3.9440	3.9440	-0.5773	5.94	-0.03	-0.750			
0.1168	7473.10	3.9410	3.9409	-0.5949	5.93	-0.04	-0.750			
0.1186	7589.97	3.9380	3.9381	-0.6109	5.93	-0.04	-0.750			
0.1204	7708.29	3.9350	3.9350	-0.6243	5.93	-0.04	-0.750			
0.1223	7829.42	3.9320	3.9320	-0.6343	5.93	-0.04	-0.750			
0.1242	7951.80	3.9290	3.9290	-0.6493	5.93	-0.04	-0.750			
0.1262	8079.92	3.9260	3.9260	-0.6608	5.93	-0.04	-0.750			
0.1283	8209.00	3.9230	3.9230	-0.6713	5.93	-0.04	-0.750			
0.1303	8337.39	3.9200	3.9203	-0.6779	5.93	-0.04	-0.750			
0.1323	8468.56	3.9170	3.9169	-0.6860	5.93	-0.04	-0.750			
0.1344	8600.07	3.9140	3.9141	-0.6934	5.93	-0.04	-0.750			
0.1365	8733.56	3.9110	3.9109	-0.7001	5.93	-0.04	-0.750			
0.1386	8870.33	3.9080	3.9081	-0.7112	5.93	-0.04	-0.750			
0.1408	9008.02	3.9050	3.9050	-0.7180	5.93	-0.04	-0.750			
0.1429	9145.92	3.9020	3.9021	-0.7255	5.93	-0.04	-0.750			
0.1451	9286.86	3.8990	3.8990	-0.7280	5.93	-0.04	-0.750			
0.1473	9426.87	3.8960	3.8959	-0.7310	5.93	-0.04	-0.750			
0.1495	9567.52	3.8930	3.8930	-0.7362	5.93	-0.04	-0.750			
0.1517	9709.42	3.8900	3.8901	-0.7404	5.93	-0.04	-0.750			
0.1539	9851.30	3.8870	3.8869	-0.7425	5.93	-0.04	-0.750			
0.1562	9994.18	3.8840	3.8840	-0.7471	5.93	-0.04	-0.750			
0.1584	10136.51	3.8810	3.8811	-0.7493	5.93	-0.04	-0.750			
0.1607	10282.37	3.8780	3.8780	-0.7525	5.94	-0.03	-0.750			
0.1629	10426.74	3.8750	3.8750	-0.7535	5.94	-0.03	-0.750			
0.1652	10573.63	3.8720	3.8720	-0.7609	5.95	-0.02	-0.750			
0.1675	10720.00	3.8690	3.8690	-0.7598	5.95	-0.02	-0.750			
0.1698	10865.41	3.8660	3.8659	-0.7613	5.95	-0.02	-0.750			
0.1720	11010.64	3.8630	3.8631	-0.7622	5.96	-0.01	-0.750			
0.1743	11157.25	3.8600	3.8600	-0.7657	5.96	-0.01	-0.750			
0.1766	11303.86	3.8570	3.8570	-0.7695	5.96	-0.01	-0.750			
0.1789	11452.11	3.8540	3.8540	-0.7714	5.97	-0.00	-0.750			
0.1813	11600.99	3.8510	3.8510	-0.7717	5.97	0.00	-0.750			
0.1836	11750.95	3.8480	3.8480	-0.7762	5.98	0.01	-0.750			
0.1859	11900.32	3.8450	3.8450	-0.7777	5.98	0.01	-0.750			
0.1883	12049.62	3.8420	3.8419	-0.7783	5.98	0.01	-0.750			
0.1906	12199.25	3.8390	3.8390	-0.7790	5.99	0.02	-0.750			
0.1929	12348.18	3.8360	3.8363	-0.7788	5.99	0.02	-0.750			
0.1953	12498.93	3.8330	3.8329	-0.7788	5.99	0.02	-0.750			
0.1976	12647.91	3.8300	3.8300	-0.7816	6.00	0.03	-0.750			
0.2000	12796.94	3.8270	3.8269	-0.7776	6.00	0.03	-0.750			
0.2023	12947.55	3.8240	3.8241	-0.7855	6.00	0.03	-0.750			
0.2046	13097.00	3.8210	3.8210	-0.7836	6.01	0.04	-0.750			
0.2070	13248.77	3.8180	3.8180	-0.7828	6.02	0.05	-0.750			
0.2094	13399.01	3.8150	3.8149	-0.7829	6.02	0.05	-0.750			
0.2117	13548.35	3.8120	3.8121	-0.7842	6.03	0.06	-0.750			
0.2140	13698.21	3.8090	3.8090	-0.7816	6.04	0.07	-0.750			
0.2164	13850.34	3.8060	3.8059	-0.7839	6.05	0.08	-0.750			
0.2187	13999.70	3.8030	3.8031	-0.7816	6.05	0.08	-0.750			
0.2211	14149.55	3.8000	3.8000	-0.7839	6.06	0.09	-0.750			
0.2234	14300.64	3.7970	3.7970	-0.7911	6.06	0.09	-0.750			
0.2258	14452.70	3.7940	3.7940	-0.7881	6.06	0.09	-0.750			
0.2282	14604.49	3.7910	3.7909	-0.7885	6.07	0.10	-0.750			
0.2306	14757.18	3.7880	3.7882	-0.7861	6.07	0.10	-0.750			
0.2330	14909.16	3.7850	3.7849	-0.7828	6.07	0.10	-0.750			
0.2353	15057.72	3.7820	3.7821	-0.7838	6.08	0.11	-0.750			
0.2376	15205.89	3.7790	3.7790	-0.7826	6.08	0.11	-0.750			
0.2399	15356.66	3.7760	3.7759	-0.7872	6.09	0.12	-0.750			
0.2423	15508.97	3.7730	3.7729	-0.7883	6.09	0.12	-0.750			
0.2447	15660.42	3.7700	3.7700	-0.7912	6.09	0.12	-0.750			
0.2471	15813.08	3.7670	3.7670	-0.7932	6.10	0.13	-0.750			
0.2494	15964.73	3.7640	3.7640	-0.7963	6.10	0.13	-0.750			
0.2518	16116.52	3.7610	3.7610	-0.7978	6.10	0.13	-0.750			
0.2542	16270.97	3.7580	3.7579	-0.8009	6.11	0.14	-0.750			
0.2567	16426.17	3.7550	3.7550	-0.8018	6.11	0.14	-0.750			
0.2591	16580.07	3.7520	3.7520	-0.8077	6.12	0.15	-0.750			
0.2615	16734.72	3.7490	3.7490	-0.8076	6.13	0.16	-0.750			
0.2639	16889.95	3.7460	3.7460	-0.8101	6.14	0.17	-0.750			
0.2663	17045.63	3.7430	3.7429	-0.8088	6.14	0.17	-0.750			
0.2688	17202.60	3.7400	3.7400	-0.8068	6.15	0.18	-0.750			
0.2712	17355.65	3.7370	3.7371	-0.8151	6.16	0.19	-0.750			
0.2736	17513.28	3.7340	3.7340	-0.8158	6.16	0.19	-0.750			
0.2761	17668.10	3.7310	3.7310	-0.8134	6.16	0.19	-0.750			
0.2785	17825.81	3.7280	3.7279	-0.8207	6.17	0.20	-0.750			
0.2810	17984.50	3.7250	3.7252	-0.8246	6.17	0.20	-0.750			
0.2835	18143.48	3.7220	3.7219	-0.8326	6.17	0.20	-0.750			
0.2860	18303.90	3.7190	3.7190	-0.8402	6.17	0.20	-0.750			
0.2885	18462.62	3.7160	3.7161	-0.8403	6.17	0.20	-0.750			
0.2911	18627.59	3.7130	3.7129	-0.8550	6.17	0.20	-0.750			
0.2936	18792.90	3.7100	3.7100	-0.8586	6.17	0.20	-0.750			
0.2962	18957.82	3.7070	3.7070	-0.8658	6.18	0.21	-0.750			
0.2988	19124.89	3.7040	3.7040	-0.8703	6.18	0.21	-0.750			
0.3014	19292.17	3.7010	3.7010	-0.8716	6.18	0.21	-0.750			
0.3041	19460.48	3.6980	3.6980	-0.8803	6.19	0.22	-0.750			
0.3067	19628.92	3.6950	3.6951	-0.8869	6.19	0.22	-0.750			
0.3094	19798.86	3.6920	3.6920	-0.8994	6.20	0.23	-0.750			
0.3121	19973.59	3.6890	3.6889	-0.9062	6.20	0.23	-0.750			
0.3148	20147.33	3.6860	3.6860	-0.9166	6.20	0.23	-0.750			
0.3176	20325.57	3.6830	3.6832	-0.9291	6.21	0.24	-0.750			
0.3204	20505.12	3.6800	3.6799	-0.9453	6.21	0.24	-0.750			
0.3232	20687.56	3.6770	3.6769	-0.9523	6.22	0.25	-0.750			
0.3261	20869.88	3.6740	3.6740	-0.9613	6.22	0.25	-0.750			
0.3290	21056.57	3.6710	3.6709	-0.9651	6.23	0.26	-0.750			
0.3320	21245.72	3.6680	3.6679	-0.9774	6.23	0.26	-0.750			
0.3349	21432.74	3.6650	3.6651	-0.9861	6.23	0.26	-0.750			
0.3378	21621.14	3.6620	3.6619	-0.9985	6.23	0.26	-0.750			
0.3408	21813.22	3.6590	3.6589	-1.0045	6.23	0.26	-0.750			
0.3439	22009.09	3.6560	3.6561	-1.0220	6.23	0.26	-0.750			
0.3470	22206.05	3.6530	3.6529	-1.0328	6.23	0.26	-0.750			
0.3501	22406.97	3.6500	3.6500	-1.0437	6.23	0.26	-0.750			
0.3532	22606.44	3.6470	3.6470	-1.0478	6.23	0.26	-0.750			
0.3564	22808.65	3.6440	3.6441	-1.0696	6.23	0.26	-0.750			
0.3596	23015.34	3.6410	3.6410	-1.0731	6.24	0.27	-0.750			
0.3629	23223.52	3.6380	3.6379	-1.0892	6.24	0.27	-0.750			
0.3662	23434.29	3.6350	3.6349	-1.0931	6.25	0.28	-0.750			
0.3694	23643.55	3.6320	3.6320	-1.1127	6.25	0.28	-0.750			
0.3728	23859.29	3.6290	3.6290	-1.1242	6.25	0.28	-0.750			
0.3762	24075.54	3.6260	3.6258	-1.1339	6.25	0.28	-0.750			
0.3796	24291.68	3.6230	3.6231	-1.1463	6.25	0.28	-0.750			
0.3831	24519.11	3.6200	3.6200	-1.1722	6.25	0.28	-0.750			
0.3867	24745.77	3.6170	3.6168	-1.1852	6.26	0.29	-0.750			
0.3903	24976.70	3.6140	3.6139	-1.1951	6.27	0.30	-0.750			
0.3938	25204.28	3.6110	3.6111	-1.2034	6.27	0.30	-0.750			
0.3975	25437.23	3.6080	3.6080	-1.2355	6.27	0.30	-0.750			
0.4012	25676.91	3.6050	3.6049	-1.2434	6.27	0.30	-0.750			
0.4049	25914.90	3.6020	3.6020	-1.2485	6.27	0.30	-0.750			
0.4088	26162.45	3.5990	3.5988	-1.2752	6.27	0.30	-0.750	0.478	1.118	
0.4126	26406.24	3.5960	3.5960	-1.2849	6.27	0.30	-0.750			
0.4165	26653.20	3.5930	3.5929	-1.2997	6.27	0.30	-0.750			
0.4204	26902.96	3.5900	3.5899	-1.3010	6.27	0.30	-0.750			
0.4243	27152.17	3.5870	3.5870	-1.3087	6.26	0.29	-0.750			
0.4282	27407.72	3.5840	3.5841	-1.3380	6.26	0.29	-0.750			
0.4323	27666.23	3.5810	3.5811	-1.3476	6.26	0.29	-0.750			
0.4364	27926.53	3.5780	3.5778	-1.3647	6.26	0.29	-0.750			
0.4404	28186.57	3.5750	3.5750	-1.3948	6.26	0.29	-0.750			
0.4447	28458.93	3.5720	3.5720	-1.4038	6.26	0.29	-0.750			
0.4490	28732.91	3.5690	3.5689	-1.4239	6.26	0.29	-0.750			
0.4533	29009.02	3.5660	3.5660	-1.4412	6.27	0.30	-0.750			
0.4576	29286.20	3.5630	3.5629	-1.4495	6.27	0.30	-0.750			
0.4620	29567.57	3.5600	3.5599	-1.4723	6.27	0.30	-0.750			
0.4664	29850.13	3.5570	3.5569	-1.4787	6.27	0.30	-0.750			
0.4708	30133.73	3.5540	3.5539	-1.4910	6.27	0.30	-0.750			
0.4754	30424.95	3.5510	3.5511	-1.5245	6.27	0.30	-0.750			
0.4800	30717.74	3.5480	3.5481	-1.5395	6.27	0.30	-0.750			
0.4846	31012.00	3.5450	3.5449	-1.5540	6.27	0.30	-0.750			
0.4894	31318.64	3.5420	3.5418	-1.5650	6.27	0.30	-0.750			
0.4940	31616.80	3.5390	3.5391	-1.5824	6.27	0.30	-0.750			
0.4988	31924.72	3.5360	3.5358	-1.5925	6.27	0.30	-0.750			
0.5037	32233.69	3.5330	3.5328	-1.5951	6.27	0.30	-0.750			
0.5084	32537.42	3.5300	3.5299	-1.5856	6.27	0.30	-0.750			
0.5132	32844.26	3.5270	3.5269	-1.6306	6.27	0.30	-0.750			
0.5181	33156.13	3.5240	3.5240	-1.6052	6.27	0.30	-0.750			
0.5231	33476.54	3.5210	3.5207	-1.6007	6.28	0.31	-0.750			
0.5278	33777.11	3.5180	3.5182	-1.5923	6.29	0.32	-0.750			
0.5325	34076.82	3.5150	3.5147	-1.6111	6.29	0.32	-0.750			
0.5373	34386.65	3.5120	3.5119	-1.6296	6.29	0.32	-0.750			
0.5421	34696.23	3.5090	3.5092	-1.6579	6.29	0.32	-0.750			
0.5472	35021.47	3.5060	3.5059	-1.6978	6.30	0.33	-0.750			
0.5524	35354.32	3.5030	3.5031	-1.6993	6.31	0.34	-0.750			
0.5577	35690.16	3.5000	3.4998	-1.7027	6.31	0.34	-0.750			
0.5627	36014.13	3.4970	3.4972	-1.6863	6.31	0.34	-0.750			
0.5678	36336.03	3.4940	3.4942	-1.6617	6.31	0.34	-0.750			
0.5727	36655.96	3.4910	3.4910	-1.6436	6.32	0.35	-0.750			
0.5775	36961.59	3.4880	3.4880	-1.6260	6.33	0.36	-0.750			
0.5825	37278.59	3.4850	3.4848	-1.6316	6.33	0.36	-0.750			
0.5874	37596.25	3.4820	3.4819	-1.6434	6.34	0.37	-0.750			
0.5924	37911.99	3.4790	3.4792	-1.6289	6.35	0.38	-0.750			
0.5973	38226.60	3.4760	3.4760	-1.6104	6.36	0.39	-0.750			
0.6021	38534.24	3.4730	3.4729	-1.6026	6.36	0.39	-0.750			
0.6068	38836.67	3.4700	3.4698	-1.5750	6.37	0.40	-0.750			
0.6115	39135.06	3.4670	3.4670	-1.5400	6.38	0.41	-0.750			
0.6161	39431.11	3.4640	3.4642	-1.5230	6.39	0.42	-0.750			
0.6207	39723.14	3.4610	3.4608	-1.5109	6.39	0.42	-0.750			
0.6253	40016.58	3.4580	3.4579	-1.4905	6.40	0.43	-0.750			
0.6297	40298.47	3.4550	3.4551	-1.4639	6.41	0.44	-0.750			
0.6340	40577.82	3.4520	3.4521	-1.4301	6.42	0.45	-0.750			
0.6383	40851.72	3.4490	3.4488	-1.3764	6.44	0.47	-0.750			
0.6424	41111.23	3.4460	3.4462	-1.3533	6.45	0.48	-0.750			
0.6462	41358.95	3.4430	3.4430	-1.3211	6.46	0.49	-0.750			
0.6501	41605.00	3.4400	3.4399	-1.3074	6.47	0.50	-0.750			
0.6540	41854.63	3.4370	3.4366	-1.3110	6.48	0.51	-0.750			
0.6579	42108.03	3.4340	3.4340	-1.2971	6.49	0.52	-0.750			
0.6620	42367.34	3.4310	3.4310	-1.2909	6.50	0.53	-0.750			
0.6659	42616.72	3.4280	3.4280	-1.2689	6.51	0.54	-0.750			
0.6696	42856.89	3.4250	3.4250	-1.2401	6.52	0.55	-0.750			
0.6734	43098.12	3.4220	3.4218	-1.1903	6.53	0.56	-0.750			
0.6769	43320.59	3.4190	3.4189	-1.1525	6.55	0.58	-0.750			
0.6802	43532.28	3.4160	3.4165	-1.1313	6.56	0.59	-0.750			
0.6836	43747.27	3.4130	3.4128	-1.1192	6.57	0.60	-0.750			
0.6868	43957.47	3.4100	3.4097	-1.0997	6.59	0.62	-0.750			
0.6901	44166.73	3.4070	3.4069	-1.0772	6.60	0.63	-0.750			
0.6934	44379.76	3.4040	3.4045	-1.0737	6.61	0.64	-0.750			
0.6967	44587.37	3.4010	3.4010	-1.0506	6.63	0.66	-0.750			
0.6998	44784.16	3.3980	3.3980	-1.0060	6.64	0.67	-0.750			
0.7027	44973.23	3.3950	3.3949	-0.9656	6.65	0.68	-0.750			
0.7055	45152.90	3.3920	3.3922	-0.9342	6.66	0.69	-0.750			
0.7082	45325.86	3.3890	3.3890	-0.9106	6.67	0.70	-0.750			
0.7109	45498.11	3.3860	3.3860	-0.8876	6.68	0.71	-0.750			
0.7135	45666.87	3.3830	3.3829	-0.8651	6.69	0.72	-0.750			
0.7161	45832.67	3.3800	3.3799	-0.8447	6.70	0.73	-0.750			
0.7187	45994.60	3.3770	3.3772	-0.8186	6.71	0.74	-0.750			
0.7211	46151.14	3.3740	3.3739	-0.7720	6.72	0.75	-0.750			
0.7233	46293.97	3.3710	3.3710	-0.7113	6.73	0.76	-0.750			
