Ah_balance (normalized)	Ah_balance (mAh)	Voltage - fit (V)	Voltage -  interpolate (V)	dQ/dV (1/V)	Temperature (°C)	Temperature - diff (°C)	Current (C)	R_DC 0ms (mOhm)	R_DC 50ms (mOhm)	R_DC 50 ms PEC (mOhm)
0.0947	6058.65	4.0050	4.0045	-0.0886	5.99	0.00	-0.750			
0.0950	6078.77	4.0020	4.0016	-0.1170	5.99	0.00	-0.750			
0.0954	6103.81	3.9990	3.9990	-0.1438	5.99	0.00	-0.750			
0.0958	6134.25	3.9960	3.9961	-0.1690	5.99	-0.00	-0.750			
0.0964	6169.22	3.9930	3.9930	-0.1938	5.99	-0.00	-0.750			
0.0970	6209.66	3.9900	3.9901	-0.2190	5.99	-0.00	-0.750			
0.0977	6254.19	3.9870	3.9870	-0.2412	5.98	-0.01	-0.750			
0.0985	6302.46	3.9840	3.9840	-0.2647	5.98	-0.01	-0.750			
0.0993	6355.36	3.9810	3.9811	-0.2895	5.98	-0.01	-0.750			
0.1002	6412.57	3.9780	3.9781	-0.3155	5.98	-0.01	-0.750			
0.1012	6476.06	3.9750	3.9749	-0.3387	5.98	-0.01	-0.750			
0.1022	6543.08	3.9720	3.9721	-0.3647	5.97	-0.02	-0.750			
0.1034	6615.46	3.9690	3.9690	-0.3907	5.97	-0.02	-0.750			
0.1046	6693.18	3.9660	3.9659	-0.4155	5.97	-0.02	-0.750			
0.1059	6775.23	3.9630	3.9630	-0.4400	5.97	-0.02	-0.750			
0.1072	6862.38	3.9600	3.9600	-0.4633	5.96	-0.03	-0.750			
0.1087	6953.95	3.9570	3.9570	-0.4863	5.96	-0.03	-0.750			
0.1102	7050.11	3.9540	3.9541	-0.5124	5.96	-0.03	-0.750			
0.1117	7150.48	3.9510	3.9510	-0.5304	5.95	-0.04	-0.750			
0.1134	7254.87	3.9480	3.9480	-0.5511	5.95	-0.04	-0.750			
0.1151	7363.48	3.9450	3.9450	-0.5721	5.94	-0.05	-0.750			
0.1168	7474.28	3.9420	3.9421	-0.5934	5.94	-0.05	-0.750			
0.1186	7590.92	3.9390	3.9389	-0.6126	5.93	-0.06	-0.750			
0.1205	7710.48	3.9360	3.9360	-0.6296	5.93	-0.06	-0.750			
0.1224	7833.20	3.9330	3.9330	-0.6436	5.93	-0.06	-0.750			
0.1244	7958.88	3.9300	3.9301	-0.6588	5.93	-0.06	-0.750			
0.1264	8087.87	3.9270	3.9270	-0.6698	5.93	-0.06	-0.750			
0.1284	8218.10	3.9240	3.9240	-0.6812	5.93	-0.06	-0.750			
0.1304	8348.64	3.9210	3.9210	-0.6867	5.93	-0.06	-0.750			
0.1325	8482.51	3.9180	3.9180	-0.6942	5.93	-0.06	-0.750			
0.1347	8618.38	3.9150	3.9149	-0.6958	5.93	-0.06	-0.750			
0.1367	8750.99	3.9120	3.9120	-0.7019	5.94	-0.05	-0.750			
0.1388	8885.46	3.9090	3.9091	-0.7138	5.94	-0.05	-0.750			
0.1410	9023.92	3.9060	3.9059	-0.7218	5.94	-0.05	-0.750			
0.1432	9163.59	3.9030	3.9027	-0.7290	5.95	-0.04	-0.750			
0.1454	9304.96	3.9000	3.9004	-0.7382	5.95	-0.04	-0.750			
0.1476	9449.48	3.8970	3.8970	-0.7485	5.95	-0.04	-0.750			
0.1499	9593.19	3.8940	3.8939	-0.7562	5.95	-0.04	-0.750			
0.1521	9736.44	3.8910	3.8910	-0.7526	5.95	-0.04	-0.750			
0.1545	9885.00	3.8880	3.8879	-0.7624	5.95	-0.04	-0.750			
0.1567	10030.34	3.8850	3.8850	-0.7638	5.95	-0.04	-0.750			
0.1590	10177.23	3.8820	3.8821	-0.7681	5.95	-0.04	-0.750			
0.1613	10324.03	3.8790	3.8790	-0.7708	5.96	-0.03	-0.750			
0.1636	10472.32	3.8760	3.8760	-0.7749	5.96	-0.03	-0.750			
0.1660	10622.12	3.8730	3.8730	-0.7781	5.96	-0.03	-0.750			
0.1683	10773.57	3.8700	3.8700	-0.7824	5.97	-0.02	-0.750			
0.1707	10924.84	3.8670	3.8671	-0.7863	5.97	-0.02	-0.750			
0.1730	11074.81	3.8640	3.8641	-0.7834	5.97	-0.02	-0.750			
0.1754	11224.97	3.8610	3.8609	-0.7846	5.98	-0.01	-0.750			
0.1777	11375.39	3.8580	3.8579	-0.7886	5.98	-0.01	-0.750			
0.1801	11527.03	3.8550	3.8550	-0.7901	5.99	-0.00	-0.750			
0.1825	11678.83	3.8520	3.8521	-0.7946	5.99	-0.00	-0.750			
0.1849	11832.71	3.8490	3.8489	-0.8009	6.00	0.01	-0.750			
0.1873	11986.10	3.8460	3.8460	-0.8062	6.00	0.01	-0.750			
0.1897	12142.66	3.8430	3.8429	-0.8051	6.01	0.02	-0.750			
0.1921	12297.08	3.8400	3.8400	-0.8047	6.02	0.03	-0.750			
0.1946	12452.77	3.8370	3.8370	-0.8041	6.03	0.04	-0.750			
0.1970	12607.32	3.8340	3.8341	-0.8034	6.03	0.04	-0.750			
0.1994	12760.73	3.8310	3.8309	-0.7992	6.04	0.05	-0.750			
0.2018	12912.56	3.8280	3.8280	-0.8024	6.04	0.05	-0.750			
0.2042	13066.20	3.8250	3.8250	-0.8040	6.04	0.05	-0.750			
0.2066	13221.99	3.8220	3.8220	-0.8107	6.05	0.06	-0.750			
0.2090	13378.42	3.8190	3.8190	-0.8117	6.05	0.06	-0.750			
0.2115	13535.09	3.8160	3.8160	-0.8133	6.06	0.07	-0.750			
0.2140	13693.45	3.8130	3.8130	-0.8162	6.07	0.08	-0.750			
0.2164	13850.98	3.8100	3.8099	-0.8163	6.08	0.09	-0.750			
0.2188	14006.22	3.8070	3.8070	-0.8121	6.08	0.09	-0.750			
0.2213	14163.38	3.8040	3.8041	-0.8074	6.09	0.10	-0.750			
0.2237	14317.56	3.8010	3.8008	-0.8065	6.10	0.11	-0.750			
0.2261	14471.61	3.7980	3.7980	-0.8121	6.10	0.11	-0.750			
0.2285	14624.62	3.7950	3.7950	-0.8107	6.10	0.11	-0.750			
0.2310	14783.79	3.7920	3.7919	-0.8210	6.11	0.12	-0.750			
0.2335	14942.02	3.7890	3.7891	-0.8239	6.11	0.12	-0.750			
0.2360	15100.99	3.7860	3.7860	-0.8280	6.12	0.13	-0.750			
0.2385	15262.52	3.7830	3.7830	-0.8268	6.13	0.14	-0.750			
0.2409	15420.64	3.7800	3.7800	-0.8215	6.14	0.15	-0.750			
0.2434	15578.32	3.7770	3.7770	-0.8224	6.14	0.15	-0.750			
0.2459	15735.45	3.7740	3.7741	-0.8203	6.15	0.16	-0.750			
0.2483	15891.46	3.7710	3.7709	-0.8231	6.16	0.17	-0.750			
0.2508	16049.00	3.7680	3.7680	-0.8310	6.17	0.18	-0.750			
0.2533	16211.29	3.7650	3.7649	-0.8287	6.17	0.18	-0.750			
0.2558	16372.99	3.7620	3.7619	-0.8363	6.18	0.19	-0.750			
0.2583	16528.95	3.7590	3.7594	-0.8602	6.19	0.20	-0.750			
0.2608	16692.86	3.7560	3.7559	-0.8767	6.20	0.21	-0.750			
0.2635	16866.31	3.7530	3.7526	-0.8825	6.21	0.22	-0.750			
0.2662	17037.43	3.7500	3.7501	-0.8847	6.22	0.23	-0.750			
0.2690	17214.47	3.7470	3.7472	-0.8919	6.22	0.23	-0.750			
0.2717	17387.65	3.7440	3.7439	-0.8761	6.23	0.24	-0.750			
0.2743	17552.05	3.7410	3.7409	-0.8590	6.24	0.25	-0.750			
0.2767	17709.66	3.7380	3.7380	-0.8424	6.25	0.26	-0.750			
0.2792	17870.11	3.7350	3.7351	-0.8414	6.26	0.27	-0.750			
0.2818	18033.04	3.7320	3.7319	-0.8448	6.27	0.28	-0.750			
0.2843	18194.52	3.7290	3.7290	-0.8437	6.27	0.28	-0.750			
0.2868	18356.31	3.7260	3.7260	-0.8508	6.28	0.29	-0.750			
0.2894	18521.74	3.7230	3.7230	-0.8560	6.29	0.30	-0.750			
0.2920	18685.24	3.7200	3.7199	-0.8538	6.30	0.31	-0.750			
0.2945	18850.26	3.7170	3.7170	-0.8616	6.31	0.32	-0.750			
0.2971	19015.61	3.7140	3.7139	-0.8659	6.31	0.32	-0.750			
0.2997	19182.19	3.7110	3.7109	-0.8715	6.32	0.33	-0.750			
0.3023	19349.13	3.7080	3.7079	-0.8750	6.33	0.34	-0.750			
0.3049	19516.68	3.7050	3.7051	-0.8766	6.34	0.35	-0.750			
0.3076	19688.01	3.7020	3.7020	-0.8891	6.35	0.36	-0.750			
0.3103	19858.52	3.6990	3.6990	-0.8937	6.35	0.36	-0.750			
0.3130	20030.49	3.6960	3.6960	-0.8942	6.36	0.37	-0.750			
0.3157	20201.80	3.6930	3.6930	-0.9042	6.36	0.37	-0.750			
0.3184	20376.22	3.6900	3.6900	-0.9119	6.37	0.38	-0.750			
0.3211	20551.88	3.6870	3.6871	-0.9237	6.37	0.38	-0.750			
0.3239	20730.37	3.6840	3.6840	-0.9386	6.38	0.39	-0.750			
0.3267	20911.44	3.6810	3.6810	-0.9480	6.39	0.40	-0.750			
0.3296	21097.00	3.6780	3.6780	-0.9543	6.40	0.41	-0.750			
0.3325	21282.51	3.6750	3.6751	-0.9636	6.41	0.42	-0.750			
0.3354	21465.65	3.6720	3.6720	-0.9757	6.42	0.43	-0.750			
0.3383	21653.66	3.6690	3.6690	-0.9838	6.42	0.43	-0.750			
0.3413	21842.21	3.6660	3.6659	-0.9928	6.43	0.44	-0.750			
0.3443	22032.70	3.6630	3.6630	-1.0040	6.44	0.45	-0.750			
0.3473	22228.45	3.6600	3.6600	-1.0260	6.44	0.45	-0.750			
0.3504	22428.21	3.6570	3.6569	-1.0382	6.45	0.46	-0.750			
0.3536	22627.48	3.6540	3.6540	-1.0511	6.46	0.47	-0.750			
0.3567	22830.43	3.6510	3.6510	-1.0606	6.47	0.48	-0.750			
0.3600	23037.18	3.6480	3.6481	-1.0846	6.47	0.48	-0.750			
0.3632	23247.13	3.6450	3.6449	-1.0975	6.48	0.49	-0.750			
0.3665	23458.64	3.6420	3.6420	-1.1107	6.48	0.49	-0.750			
0.3699	23672.80	3.6390	3.6390	-1.1197	6.49	0.50	-0.750			
0.3733	23890.22	3.6360	3.6360	-1.1378	6.49	0.50	-0.750			
0.3767	24110.92	3.6330	3.6329	-1.1460	6.50	0.51	-0.750			
0.3802	24331.71	3.6300	3.6300	-1.1604	6.51	0.52	-0.750			
0.3837	24553.81	3.6270	3.6271	-1.1752	6.51	0.52	-0.750			
0.3872	24781.56	3.6240	3.6240	-1.1969	6.52	0.53	-0.750			
0.3908	25012.68	3.6210	3.6209	-1.2170	6.52	0.53	-0.750			
0.3945	25246.98	3.6180	3.6180	-1.2437	6.53	0.54	-0.750			
0.3983	25489.73	3.6150	3.6150	-1.2588	6.53	0.54	-0.750			
0.4021	25734.30	3.6120	3.6120	-1.2760	6.53	0.54	-0.750			
0.4059	25978.77	3.6090	3.6090	-1.2950	6.53	0.54	-0.750			
0.4098	26229.71	3.6060	3.6059	-1.3069	6.53	0.54	-0.750			
0.4138	26483.71	3.6030	3.6030	-1.3196	6.54	0.55	-0.750			
0.4178	26738.26	3.6000	3.5997	-1.3330	6.55	0.56	-0.750	0.485	1.142	
0.4218	26996.13	3.5970	3.5970	-1.3503	6.55	0.56	-0.750			
0.4259	27258.68	3.5940	3.5939	-1.3738	6.56	0.57	-0.750			
0.4300	27520.06	3.5910	3.5910	-1.3947	6.57	0.58	-0.750			
0.4342	27789.15	3.5880	3.5880	-1.4080	6.57	0.58	-0.750			
0.4385	28065.23	3.5850	3.5849	-1.4372	6.57	0.58	-0.750			
0.4428	28342.04	3.5820	3.5820	-1.4589	6.57	0.58	-0.750			
0.4472	28621.35	3.5790	3.5791	-1.4774	6.57	0.58	-0.750			
0.4517	28911.04	3.5760	3.5759	-1.5037	6.58	0.59	-0.750			
0.4563	29201.04	3.5730	3.5729	-1.5104	6.59	0.60	-0.750			
0.4608	29492.43	3.5700	3.5699	-1.5288	6.59	0.60	-0.750			
0.4655	29789.03	3.5670	3.5669	-1.5560	6.60	0.61	-0.750			
0.4701	30087.94	3.5640	3.5641	-1.5730	6.61	0.62	-0.750			
0.4749	30393.19	3.5610	3.5610	-1.5779	6.61	0.62	-0.750			
0.4797	30700.41	3.5580	3.5579	-1.5945	6.61	0.62	-0.750			
0.4845	31008.56	3.5550	3.5550	-1.6176	6.61	0.62	-0.750			
0.4893	31318.14	3.5520	3.5522	-1.6303	6.63	0.64	-0.750			
0.4942	31631.46	3.5490	3.5491	-1.6369	6.64	0.65	-0.750			
0.4992	31948.12	3.5460	3.5459	-1.6595	6.64	0.65	-0.750			
0.5042	32271.90	3.5430	3.5429	-1.6861	6.65	0.66	-0.750			
0.5093	32598.03	3.5400	3.5399	-1.7137	6.65	0.66	-0.750			
0.5145	32927.37	3.5370	3.5372	-1.7220	6.66	0.67	-0.750			
0.5196	33256.72	3.5340	3.5342	-1.7336	6.67	0.68	-0.750			
0.5249	33595.79	3.5310	3.5310	-1.7459	6.68	0.69	-0.750			
0.5302	33932.29	3.5280	3.5279	-1.7476	6.69	0.70	-0.750			
0.5355	34269.40	3.5250	3.5250	-1.7541	6.69	0.70	-0.750			
0.5407	34602.59	3.5220	3.5221	-1.7534	6.70	0.71	-0.750			
0.5460	34944.18	3.5190	3.5188	-1.7681	6.70	0.71	-0.750			
0.5513	35282.83	3.5160	3.5161	-1.7701	6.70	0.71	-0.750			
0.5566	35619.82	3.5130	3.5130	-1.7762	6.71	0.72	-0.750			
0.5620	35967.89	3.5100	3.5100	-1.7819	6.72	0.73	-0.750			
0.5674	36310.97	3.5070	3.5071	-1.7736	6.73	0.74	-0.750			
0.5727	36652.98	3.5040	3.5040	-1.7738	6.74	0.75	-0.750			
0.5780	36988.96	3.5010	3.5011	-1.7614	6.75	0.76	-0.750			
0.5832	37327.58	3.4980	3.4981	-1.7452	6.76	0.77	-0.750			
0.5885	37661.15	3.4950	3.4950	-1.7407	6.77	0.78	-0.750			
0.5936	37992.81	3.4920	3.4921	-1.7223	6.79	0.80	-0.750			
0.5988	38324.97	3.4890	3.4889	-1.7246	6.80	0.81	-0.750			
0.6040	38656.14	3.4860	3.4860	-1.7146	6.80	0.81	-0.750			
0.6091	38984.83	3.4830	3.4830	-1.6884	6.81	0.82	-0.750			
0.6142	39308.10	3.4800	3.4802	-1.6800	6.82	0.83	-0.750			
0.6193	39632.24	3.4770	3.4771	-1.6643	6.84	0.85	-0.750			
0.6242	39948.48	3.4740	3.4739	-1.6369	6.85	0.86	-0.750			
0.6291	40261.48	3.4710	3.4711	-1.6118	6.86	0.87	-0.750			
0.6338	40566.32	3.4680	3.4681	-1.5935	6.87	0.88	-0.750			
0.6386	40869.75	3.4650	3.4649	-1.5674	6.89	0.90	-0.750			
0.6433	41171.56	3.4620	3.4620	-1.5457	6.90	0.91	-0.750			
0.6479	41462.69	3.4590	3.4589	-1.5150	6.92	0.93	-0.750			
0.6524	41754.66	3.4560	3.4561	-1.5012	6.93	0.94	-0.750			
0.6569	42041.11	3.4530	3.4529	-1.4751	6.95	0.96	-0.750			
0.6613	42321.11	3.4500	3.4499	-1.4432	6.96	0.97	-0.750			
0.6656	42596.98	3.4470	3.4470	-1.4138	6.96	0.97	-0.750			
0.6698	42865.79	3.4440	3.4441	-1.3869	6.97	0.98	-0.750			
0.6739	43127.61	3.4410	3.4410	-1.3526	6.99	1.00	-0.750			
0.6779	43384.45	3.4380	3.4380	-1.3225	7.01	1.02	-0.750			
0.6818	43633.53	3.4350	3.4350	-1.2951	7.02	1.03	-0.750			
0.6856	43880.12	3.4320	3.4320	-1.2681	7.04	1.05	-0.750			
0.6894	44122.41	3.4290	3.4290	-1.2454	7.05	1.06	-0.750			
0.6931	44359.19	3.4260	3.4260	-1.2161	7.06	1.07	-0.750			
0.6967	44590.64	3.4230	3.4231	-1.1883	7.08	1.09	-0.750			
0.7003	44817.65	3.4200	3.4200	-1.1602	7.09	1.10	-0.750			
0.7037	45037.51	3.4170	3.4170	-1.1290	7.11	1.12	-0.750			
0.7070	45250.14	3.4140	3.4140	-1.0956	7.13	1.14	-0.750			
0.7103	45457.60	3.4110	3.4109	-1.0689	7.14	1.15	-0.750			
0.7134	45659.24	3.4080	3.4080	-1.0357	7.16	1.17	-0.750			
0.7165	45856.03	3.4050	3.4050	-1.0077	7.17	1.18	-0.750			
0.7195	46046.11	3.4020	3.4019	-0.9783	7.18	1.19	-0.750			
0.7224	46231.30	3.3990	3.3991	-0.9548	7.20	1.21	-0.750			
0.7252	46411.81	3.3960	3.3960	-0.9280	7.21	1.22	-0.750			
0.7279	46586.63	3.3930	3.3929	-0.9022	7.23	1.24	-0.750			
0.7306	46757.68	3.3900	3.3899	-0.8769	7.24	1.25	-0.750			
0.7332	46925.18	3.3870	3.3871	-0.8516	7.25	1.26	-0.750			
0.7357	47085.69	3.3840	3.3840	-0.8232	7.26	1.27	-0.750			
0.7382	47242.59	3.3810	3.3811	-0.7852	7.27	1.28	-0.750			
0.7405	47389.38	3.3780	3.3780	-0.7398	7.29	1.30	-0.750			
