Ah_balance (normalized)	Ah_balance (mAh)	Voltage - fit (V)	Voltage -  interpolate (V)	dQ/dV (1/V)	Temperature (°C)	Temperature - diff (°C)	Current (C)	R_DC 0ms (mOhm)	R_DC 50ms (mOhm)	R_DC 50 ms PEC (mOhm)
0.0941	6025.55	4.0030	4.0026	-0.0877	5.99	0.01	-0.750			
0.0945	6046.51	4.0000	3.9997	-0.1200	5.99	0.01	-0.750			
0.0949	6072.21	3.9970	3.9969	-0.1477	5.99	0.01	-0.750			
0.0954	6103.63	3.9940	3.9940	-0.1733	5.99	0.01	-0.750			
0.0959	6139.59	3.9910	3.9911	-0.1995	5.98	0.00	-0.750			
0.0966	6181.12	3.9880	3.9880	-0.2264	5.98	0.00	-0.750			
0.0973	6226.85	3.9850	3.9849	-0.2500	5.98	0.00	-0.750			
0.0981	6276.82	3.9820	3.9821	-0.2749	5.98	0.00	-0.750			
0.0989	6331.75	3.9790	3.9790	-0.2995	5.98	0.00	-0.750			
0.0999	6392.07	3.9760	3.9759	-0.3242	5.98	0.00	-0.750			
0.1009	6456.67	3.9730	3.9730	-0.3489	5.98	0.00	-0.750			
0.1020	6525.40	3.9700	3.9701	-0.3741	5.98	-0.00	-0.750			
0.1031	6599.84	3.9670	3.9670	-0.4001	5.98	-0.00	-0.750			
0.1044	6679.21	3.9640	3.9640	-0.4272	5.98	-0.00	-0.750			
0.1057	6763.08	3.9610	3.9610	-0.4528	5.98	-0.00	-0.750			
0.1071	6853.40	3.9580	3.9580	-0.4777	5.98	-0.00	-0.750			
0.1086	6947.56	3.9550	3.9550	-0.5041	5.97	-0.01	-0.750			
0.1101	7047.70	3.9520	3.9520	-0.5237	5.97	-0.01	-0.750			
0.1117	7150.50	3.9490	3.9490	-0.5436	5.97	-0.01	-0.750			
0.1134	7257.00	3.9460	3.9460	-0.5634	5.97	-0.01	-0.750			
0.1151	7366.81	3.9430	3.9429	-0.5817	5.97	-0.01	-0.750			
0.1169	7480.24	3.9400	3.9400	-0.6011	5.97	-0.01	-0.750			
0.1187	7597.83	3.9370	3.9370	-0.6192	5.96	-0.02	-0.750			
0.1206	7718.98	3.9340	3.9340	-0.6344	5.96	-0.02	-0.750			
0.1226	7843.95	3.9310	3.9311	-0.6497	5.96	-0.02	-0.750			
0.1245	7969.61	3.9280	3.9280	-0.6637	5.95	-0.03	-0.750			
0.1265	8098.34	3.9250	3.9251	-0.6751	5.95	-0.03	-0.750			
0.1286	8229.66	3.9220	3.9219	-0.6828	5.95	-0.03	-0.750			
0.1306	8361.59	3.9190	3.9190	-0.6897	5.96	-0.02	-0.750			
0.1327	8495.09	3.9160	3.9161	-0.7002	5.96	-0.02	-0.750			
0.1348	8630.28	3.9130	3.9130	-0.7077	5.96	-0.02	-0.750			
0.1370	8767.42	3.9100	3.9099	-0.7141	5.97	-0.01	-0.750			
0.1391	8904.48	3.9070	3.9071	-0.7212	5.97	-0.01	-0.750			
0.1413	9044.52	3.9040	3.9040	-0.7277	5.97	-0.01	-0.750			
0.1435	9185.39	3.9010	3.9010	-0.7331	5.97	-0.01	-0.750			
0.1458	9328.62	3.8980	3.8980	-0.7337	5.97	-0.01	-0.750			
0.1479	9468.20	3.8950	3.8950	-0.7362	5.97	-0.01	-0.750			
0.1502	9609.78	3.8920	3.8920	-0.7417	5.97	-0.01	-0.750			
0.1524	9752.27	3.8890	3.8890	-0.7468	5.97	-0.01	-0.750			
0.1546	9894.73	3.8860	3.8858	-0.7525	5.97	-0.01	-0.750			
0.1569	10040.72	3.8830	3.8831	-0.7565	5.98	-0.00	-0.750			
0.1592	10187.56	3.8800	3.8801	-0.7605	5.98	0.00	-0.750			
0.1615	10335.25	3.8770	3.8770	-0.7687	5.99	0.01	-0.750			
0.1638	10482.45	3.8740	3.8740	-0.7664	5.99	0.01	-0.750			
0.1661	10627.96	3.8710	3.8710	-0.7666	5.99	0.01	-0.750			
0.1684	10774.92	3.8680	3.8680	-0.7720	6.00	0.02	-0.750			
0.1707	10923.72	3.8650	3.8651	-0.7738	6.00	0.02	-0.750			
0.1730	11073.58	3.8620	3.8619	-0.7776	6.00	0.02	-0.750			
0.1754	11223.88	3.8590	3.8590	-0.7792	6.01	0.03	-0.750			
0.1777	11373.03	3.8560	3.8561	-0.7784	6.01	0.03	-0.750			
0.1800	11522.80	3.8530	3.8530	-0.7823	6.02	0.04	-0.750			
0.1824	11672.99	3.8500	3.8499	-0.7801	6.03	0.05	-0.750			
0.1847	11821.37	3.8470	3.8470	-0.7801	6.04	0.06	-0.750			
0.1871	11971.96	3.8440	3.8440	-0.7831	6.04	0.06	-0.750			
0.1894	12122.77	3.8410	3.8412	-0.7858	6.05	0.07	-0.750			
0.1918	12274.12	3.8380	3.8380	-0.7866	6.05	0.07	-0.750			
0.1941	12425.42	3.8350	3.8350	-0.7855	6.06	0.08	-0.750			
0.1965	12576.37	3.8320	3.8320	-0.7838	6.06	0.08	-0.750			
0.1989	12726.78	3.8290	3.8291	-0.7885	6.07	0.09	-0.750			
0.2012	12877.46	3.8260	3.8258	-0.7882	6.07	0.09	-0.750			
0.2036	13029.02	3.8230	3.8229	-0.7899	6.08	0.10	-0.750			
0.2059	13180.32	3.8200	3.8200	-0.7937	6.08	0.10	-0.750			
0.2083	13334.24	3.8170	3.8170	-0.7939	6.09	0.11	-0.750			
0.2107	13487.36	3.8140	3.8140	-0.7917	6.10	0.12	-0.750			
0.2131	13639.82	3.8110	3.8109	-0.7917	6.11	0.13	-0.750			
0.2155	13790.51	3.8080	3.8080	-0.7890	6.11	0.13	-0.750			
0.2178	13939.52	3.8050	3.8050	-0.7978	6.11	0.13	-0.750			
0.2202	14093.87	3.8020	3.8020	-0.7981	6.11	0.13	-0.750			
0.2226	14247.80	3.7990	3.7989	-0.7995	6.12	0.14	-0.750			
0.2251	14403.87	3.7960	3.7960	-0.7980	6.12	0.14	-0.750			
0.2275	14558.05	3.7930	3.7930	-0.7989	6.12	0.14	-0.750			
0.2298	14709.81	3.7900	3.7901	-0.7990	6.13	0.15	-0.750			
0.2322	14862.47	3.7870	3.7870	-0.7956	6.13	0.15	-0.750			
0.2346	15014.15	3.7840	3.7839	-0.7878	6.14	0.16	-0.750			
0.2370	15167.25	3.7810	3.7811	-0.7966	6.14	0.16	-0.750			
0.2394	15319.53	3.7780	3.7781	-0.7989	6.15	0.17	-0.750			
0.2418	15472.81	3.7750	3.7749	-0.8032	6.16	0.18	-0.750			
0.2442	15626.07	3.7720	3.7719	-0.8046	6.17	0.19	-0.750			
0.2466	15781.43	3.7690	3.7691	-0.8102	6.17	0.19	-0.750			
0.2491	15940.73	3.7660	3.7659	-0.8097	6.18	0.20	-0.750			
0.2515	16096.66	3.7630	3.7632	-0.8055	6.19	0.21	-0.750			
0.2539	16249.12	3.7600	3.7600	-0.8020	6.19	0.21	-0.750			
0.2563	16402.98	3.7570	3.7569	-0.8028	6.20	0.22	-0.750			
0.2587	16554.44	3.7540	3.7540	-0.8030	6.20	0.22	-0.750			
0.2611	16709.83	3.7510	3.7510	-0.8070	6.21	0.23	-0.750			
0.2635	16866.82	3.7480	3.7481	-0.8133	6.21	0.23	-0.750			
0.2660	17024.71	3.7450	3.7449	-0.8153	6.21	0.23	-0.750			
0.2684	17180.57	3.7420	3.7421	-0.8166	6.22	0.24	-0.750			
0.2709	17336.88	3.7390	3.7389	-0.8169	6.22	0.24	-0.750			
0.2733	17493.60	3.7360	3.7360	-0.8164	6.22	0.24	-0.750			
0.2758	17649.51	3.7330	3.7330	-0.8196	6.23	0.25	-0.750			
0.2782	17807.70	3.7300	3.7300	-0.8254	6.23	0.25	-0.750			
0.2807	17966.85	3.7270	3.7270	-0.8367	6.24	0.26	-0.750			
0.2833	18129.46	3.7240	3.7239	-0.8434	6.25	0.27	-0.750			
0.2858	18292.84	3.7210	3.7210	-0.8446	6.25	0.27	-0.750			
0.2884	18456.21	3.7180	3.7180	-0.8502	6.26	0.28	-0.750			
0.2909	18620.50	3.7150	3.7149	-0.8557	6.26	0.28	-0.750			
0.2935	18784.07	3.7120	3.7120	-0.8586	6.27	0.29	-0.750			
0.2961	18947.89	3.7090	3.7089	-0.8599	6.28	0.30	-0.750			
0.2986	19111.73	3.7060	3.7060	-0.8638	6.28	0.30	-0.750			
0.3013	19280.33	3.7030	3.7030	-0.8767	6.29	0.31	-0.750			
0.3039	19448.03	3.7000	3.7000	-0.8893	6.29	0.31	-0.750			
0.3066	19619.66	3.6970	3.6970	-0.8954	6.30	0.32	-0.750			
0.3093	19792.96	3.6940	3.6940	-0.9042	6.30	0.32	-0.750			
0.3120	19967.30	3.6910	3.6910	-0.9128	6.31	0.33	-0.750			
0.3148	20145.35	3.6880	3.6881	-0.9197	6.31	0.33	-0.750			
0.3175	20321.00	3.6850	3.6850	-0.9307	6.31	0.33	-0.750			
0.3203	20499.73	3.6820	3.6820	-0.9376	6.31	0.33	-0.750			
0.3231	20680.21	3.6790	3.6788	-0.9478	6.32	0.34	-0.750			
0.3260	20865.14	3.6760	3.6761	-0.9590	6.32	0.34	-0.750			
0.3289	21048.82	3.6730	3.6730	-0.9724	6.32	0.34	-0.750			
0.3318	21237.49	3.6700	3.6700	-0.9823	6.32	0.34	-0.750			
0.3348	21427.19	3.6670	3.6670	-0.9937	6.33	0.35	-0.750			
0.3378	21616.96	3.6640	3.6639	-0.9968	6.33	0.35	-0.750			
0.3408	21810.52	3.6610	3.6610	-1.0153	6.33	0.35	-0.750			
0.3439	22007.35	3.6580	3.6580	-1.0214	6.34	0.36	-0.750			
0.3469	22204.56	3.6550	3.6549	-1.0327	6.34	0.36	-0.750			
0.3500	22401.09	3.6520	3.6520	-1.0376	6.35	0.37	-0.750			
0.3532	22603.32	3.6490	3.6491	-1.0604	6.35	0.37	-0.750			
0.3564	22807.84	3.6460	3.6459	-1.0731	6.35	0.37	-0.750			
0.3596	23016.26	3.6430	3.6430	-1.0878	6.36	0.38	-0.750			
0.3629	23225.68	3.6400	3.6400	-1.0973	6.36	0.38	-0.750			
0.3662	23439.75	3.6370	3.6369	-1.1144	6.36	0.38	-0.750			
0.3696	23655.47	3.6340	3.6340	-1.1202	6.36	0.38	-0.750			
0.3730	23871.46	3.6310	3.6310	-1.1262	6.35	0.37	-0.750			
0.3763	24086.33	3.6280	3.6281	-1.1314	6.35	0.37	-0.750			
0.3798	24306.35	3.6250	3.6250	-1.1514	6.35	0.37	-0.750			
0.3833	24528.15	3.6220	3.6219	-1.1648	6.36	0.38	-0.750			
0.3867	24751.53	3.6190	3.6189	-1.1820	6.37	0.39	-0.750			
0.3903	24980.80	3.6160	3.6161	-1.1969	6.37	0.39	-0.750			
0.3940	25214.56	3.6130	3.6130	-1.2174	6.38	0.40	-0.750			
0.3977	25451.29	3.6100	3.6100	-1.2231	6.38	0.40	-0.750			
0.4013	25683.53	3.6070	3.6071	-1.2358	6.39	0.41	-0.750			
0.4051	25925.37	3.6040	3.6040	-1.2555	6.39	0.41	-0.750			
0.4088	26165.94	3.6010	3.6010	-1.2677	6.39	0.41	-0.750			
0.4126	26408.25	3.5980	3.5979	-1.2915	6.39	0.41	-0.750	0.495	1.127	
0.4166	26659.57	3.5950	3.5950	-1.3044	6.39	0.41	-0.750			
0.4205	26914.01	3.5920	3.5920	-1.3193	6.39	0.41	-0.750			
0.4245	27169.62	3.5890	3.5890	-1.3358	6.39	0.41	-0.750			
0.4286	27427.40	3.5860	3.5860	-1.3380	6.39	0.41	-0.750			
0.4326	27685.21	3.5830	3.5830	-1.3546	6.39	0.41	-0.750			
0.4366	27943.20	3.5800	3.5800	-1.3726	6.40	0.42	-0.750			
0.4407	28206.88	3.5770	3.5770	-1.3829	6.40	0.42	-0.750			
0.4450	28477.46	3.5740	3.5739	-1.4097	6.40	0.42	-0.750			
0.4492	28750.35	3.5710	3.5709	-1.4260	6.40	0.42	-0.750			
0.4535	29026.66	3.5680	3.5680	-1.4379	6.40	0.42	-0.750			
0.4579	29306.15	3.5650	3.5650	-1.4510	6.40	0.42	-0.750			
0.4622	29582.69	3.5620	3.5620	-1.4693	6.39	0.41	-0.750			
0.4667	29866.67	3.5590	3.5589	-1.4791	6.39	0.41	-0.750			
0.4712	30156.59	3.5560	3.5559	-1.5064	6.39	0.41	-0.750			
0.4758	30448.48	3.5530	3.5532	-1.5238	6.39	0.41	-0.750			
0.4803	30741.80	3.5500	3.5498	-1.5413	6.39	0.41	-0.750			
0.4850	31041.37	3.5470	3.5472	-1.5515	6.39	0.41	-0.750			
0.4896	31336.92	3.5440	3.5442	-1.5682	6.39	0.41	-0.750			
0.4944	31640.25	3.5410	3.5408	-1.5835	6.39	0.41	-0.750			
0.4992	31947.98	3.5380	3.5381	-1.5974	6.40	0.42	-0.750			
0.5040	32257.93	3.5350	3.5349	-1.6128	6.40	0.42	-0.750			
0.5089	32569.37	3.5320	3.5320	-1.6276	6.41	0.43	-0.750			
0.5137	32879.38	3.5290	3.5291	-1.6388	6.41	0.43	-0.750			
0.5187	33196.89	3.5260	3.5260	-1.6339	6.40	0.42	-0.750			
0.5236	33509.80	3.5230	3.5229	-1.6711	6.39	0.41	-0.750			
0.5287	33834.85	3.5200	3.5199	-1.6711	6.39	0.41	-0.750			
0.5337	34158.16	3.5170	3.5170	-1.6850	6.40	0.42	-0.750			
0.5388	34485.20	3.5140	3.5142	-1.6835	6.41	0.43	-0.750			
0.5438	34804.82	3.5110	3.5110	-1.6745	6.42	0.44	-0.750			
0.5488	35126.15	3.5080	3.5079	-1.6661	6.43	0.45	-0.750			
0.5539	35446.43	3.5050	3.5049	-1.6600	6.43	0.45	-0.750			
0.5588	35764.51	3.5020	3.5020	-1.6667	6.43	0.45	-0.750			
0.5638	36083.77	3.4990	3.4988	-1.6703	6.43	0.45	-0.750			
0.5688	36405.68	3.4960	3.4959	-1.6626	6.44	0.46	-0.750			
0.5738	36725.98	3.4930	3.4931	-1.6688	6.45	0.47	-0.750			
0.5788	37043.99	3.4900	3.4900	-1.6628	6.45	0.47	-0.750			
0.5838	37361.99	3.4870	3.4870	-1.6660	6.46	0.48	-0.750			
0.5889	37687.77	3.4840	3.4842	-1.6531	6.47	0.49	-0.750			
0.5938	38003.30	3.4810	3.4810	-1.6281	6.48	0.50	-0.750			
0.5987	38317.02	3.4780	3.4780	-1.6293	6.49	0.51	-0.750			
0.6036	38627.77	3.4750	3.4749	-1.6122	6.49	0.51	-0.750			
0.6084	38934.52	3.4720	3.4719	-1.5809	6.50	0.52	-0.750			
0.6131	39238.40	3.4690	3.4691	-1.5627	6.51	0.53	-0.750			
0.6178	39539.71	3.4660	3.4660	-1.5386	6.52	0.54	-0.750			
0.6225	39838.24	3.4630	3.4628	-1.5085	6.52	0.54	-0.750			
0.6270	40126.66	3.4600	3.4602	-1.4801	6.53	0.55	-0.750			
0.6314	40406.58	3.4570	3.4569	-1.4316	6.54	0.56	-0.750			
0.6354	40666.68	3.4540	3.4540	-1.4408	6.55	0.57	-0.750			
0.6398	40947.66	3.4510	3.4513	-1.4310	6.56	0.58	-0.750			
0.6441	41222.09	3.4480	3.4475	-1.4297	6.58	0.60	-0.750			
0.6484	41495.15	3.4450	3.4453	-1.4193	6.59	0.61	-0.750			
0.6526	41765.02	3.4420	3.4422	-1.4017	6.60	0.62	-0.750			
0.6570	42047.56	3.4390	3.4389	-1.4028	6.61	0.63	-0.750			
0.6612	42313.84	3.4360	3.4359	-1.3625	6.62	0.64	-0.750			
0.6652	42571.21	3.4330	3.4331	-1.3415	6.63	0.65	-0.750			
0.6691	42824.95	3.4300	3.4300	-1.2990	6.65	0.67	-0.750			
0.6729	43065.95	3.4270	3.4270	-1.2622	6.66	0.68	-0.750			
0.6767	43305.70	3.4240	3.4241	-1.2277	6.67	0.69	-0.750			
0.6803	43538.69	3.4210	3.4210	-1.1959	6.68	0.70	-0.750			
0.6838	43765.68	3.4180	3.4178	-1.1640	6.69	0.71	-0.750			
0.6873	43986.58	3.4150	3.4151	-1.1319	6.70	0.72	-0.750			
0.6906	44198.96	3.4120	3.4121	-1.1106	6.72	0.74	-0.750			
0.6939	44409.65	3.4090	3.4089	-1.0831	6.73	0.75	-0.750			
0.6971	44615.51	3.4060	3.4059	-1.0514	6.75	0.77	-0.750			
0.7002	44814.54	3.4030	3.4030	-1.0187	6.76	0.78	-0.750			
0.7033	45009.02	3.4000	3.4000	-0.9923	6.78	0.80	-0.750			
0.7062	45197.38	3.3970	3.3970	-0.9680	6.78	0.80	-0.750			
0.7091	45380.22	3.3940	3.3939	-0.9342	6.79	0.81	-0.750			
0.7118	45552.72	3.3910	3.3909	-0.9014	6.80	0.82	-0.750			
0.7145	45725.63	3.3880	3.3883	-0.8827	6.81	0.83	-0.750			
0.7171	45893.50	3.3850	3.3849	-0.8604	6.82	0.84	-0.750			
0.7196	46055.40	3.3820	3.3819	-0.8392	6.84	0.86	-0.750			
0.7221	46212.37	3.3790	3.3790	-0.8152	6.85	0.87	-0.750			
0.7245	46369.39	3.3760	3.3760	-0.7986	6.86	0.88	-0.750			
0.7269	46520.89	3.3730	3.3732	-0.7696	6.87	0.89	-0.750			
0.7291	46665.57	3.3700	3.3700	-0.7370	6.88	0.90	-0.750			
