Ah_balance (normalized)	Ah_balance (mAh)	Voltage - fit (V)	Voltage -  interpolate (V)	dQ/dV (1/V)	Temperature (°C)	Temperature - diff (°C)	Current (C)	R_DC 0ms (mOhm)	R_DC 50ms (mOhm)	R_DC 50 ms PEC (mOhm)
0.4532	29004.69	3.7720	3.7718	1.3982	25.53	0.87	0.750			
0.4574	29271.00	3.7690	3.7691	1.4141	25.51	0.85	0.750			
0.4617	29547.60	3.7660	3.7660	1.4576	25.50	0.84	0.750			
0.4662	29835.63	3.7630	3.7629	1.4752	25.48	0.82	0.750			
0.4706	30119.59	3.7600	3.7601	1.5093	25.46	0.80	0.750			
0.4752	30413.37	3.7570	3.7571	1.5264	25.44	0.78	0.750			
0.4798	30706.29	3.7540	3.7541	1.5289	25.41	0.75	0.750			
0.4843	30997.29	3.7510	3.7509	1.5700	25.40	0.74	0.750			
0.4891	31301.07	3.7480	3.7481	1.6594	25.38	0.72	0.750			
0.4942	31626.82	3.7450	3.7451	1.6823	25.35	0.69	0.750			
0.4993	31955.58	3.7420	3.7421	1.7216	25.33	0.67	0.750			
0.5046	32296.19	3.7390	3.7389	1.7351	25.30	0.64	0.750			
0.5098	32628.36	3.7360	3.7359	1.7489	25.28	0.62	0.750			
0.5151	32967.95	3.7330	3.7329	1.8268	25.26	0.60	0.750			
0.5206	33320.45	3.7300	3.7297	1.8751	25.24	0.58	0.750			
0.5263	33683.00	3.7270	3.7273	1.9398	25.21	0.55	0.750			
0.5324	34075.59	3.7240	3.7239	1.9864	25.19	0.53	0.750			
0.5382	34442.25	3.7210	3.7211	2.0185	25.17	0.51	0.750			
0.5444	34841.02	3.7180	3.7179	2.1022	25.15	0.49	0.750			
0.5510	35262.40	3.7150	3.7150	2.1709	25.13	0.47	0.750			
0.5579	35704.16	3.7120	3.7121	2.1633	25.10	0.44	0.750			
0.5643	36114.77	3.7090	3.7088	2.1052	25.08	0.42	0.750			
0.5704	36507.02	3.7060	3.7059	2.1556	25.05	0.39	0.750			
0.5768	36915.75	3.7030	3.7030	2.3975	25.03	0.37	0.750			
0.5847	37418.15	3.7000	3.6999	2.6769	25.01	0.35	0.750			
0.5933	37969.79	3.6970	3.6970	2.7896	24.99	0.33	0.750			
0.6014	38491.51	3.6940	3.6939	2.7535	24.96	0.30	0.750			
0.6099	39034.36	3.6910	3.6910	2.8139	24.94	0.28	0.750			
0.6184	39574.80	3.6880	3.6882	2.7868	24.92	0.26	0.750			
0.6266	40105.36	3.6850	3.6850	2.6014	24.90	0.24	0.750			
0.6342	40586.28	3.6820	3.6818	2.4571	24.89	0.23	0.750			
0.6412	41035.50	3.6790	3.6790	2.1782	24.87	0.21	0.750			
0.6473	41427.41	3.6760	3.6763	1.9991	24.86	0.20	0.750			
0.6529	41784.74	3.6730	3.6730	1.8319	24.85	0.19	0.750			
0.6581	42118.26	3.6700	3.6703	1.7124	24.85	0.19	0.750			
0.6632	42442.23	3.6670	3.6671	1.6505	24.84	0.18	0.750			
0.6679	42746.64	3.6640	3.6640	1.5443	24.84	0.18	0.750			
0.6722	43022.49	3.6610	3.6611	1.4523	24.82	0.16	0.750			
0.6765	43296.70	3.6580	3.6581	1.3978	24.81	0.15	0.750			
0.6806	43556.29	3.6550	3.6551	1.3408	24.80	0.14	0.750			
0.6845	43808.19	3.6520	3.6521	1.3150	24.80	0.14	0.750			
0.6884	44054.72	3.6490	3.6490	1.3070	24.79	0.13	0.750			
0.6922	44303.59	3.6460	3.6459	1.2889	24.78	0.12	0.750			
0.6961	44552.40	3.6430	3.6430	1.2923	24.77	0.11	0.750			
0.7001	44804.03	3.6400	3.6400	1.2948	24.77	0.11	0.750			
0.7039	45052.77	3.6370	3.6370	1.2821	24.76	0.10	0.750			
0.7077	45294.03	3.6340	3.6340	1.2746	24.76	0.10	0.750			
0.7115	45538.33	3.6310	3.6310	1.2678	24.76	0.10	0.750			
0.7154	45783.07	3.6280	3.6278	1.2625	24.76	0.10	0.750			
0.7191	46022.48	3.6250	3.6251	1.2657	24.75	0.09	0.750			
0.7229	46264.01	3.6220	3.6220	1.2798	24.73	0.07	0.750			
0.7267	46508.68	3.6190	3.6190	1.3049	24.72	0.06	0.750			
0.7306	46761.48	3.6160	3.6161	1.2986	24.70	0.04	0.750			
0.7345	47008.89	3.6130	3.6131	1.3725	24.70	0.04	0.750			
0.7386	47272.08	3.6100	3.6102	1.4732	24.69	0.03	0.750			
0.7431	47559.33	3.6070	3.6069	1.5613	24.68	0.02	0.750			
0.7481	47876.29	3.6040	3.6039	1.5331	24.67	0.01	0.750			
0.7529	48184.32	3.6010	3.6011	1.5527	24.66	0.00	0.750			
0.7573	48464.20	3.5980	3.5980	1.4815	24.64	-0.02	0.750			
0.7617	48746.55	3.5950	3.5949	1.5169	24.63	-0.03	0.750			
0.7662	49033.97	3.5920	3.5920	1.5600	24.61	-0.05	0.750			
0.7711	49348.58	3.5890	3.5890	1.5489	24.60	-0.06	0.750			
0.7753	49618.27	3.5860	3.5865	1.5090	24.59	-0.07	0.750			
0.7796	49896.01	3.5830	3.5830	1.6180	24.59	-0.07	0.750			
0.7846	50212.91	3.5800	3.5806	1.7605	24.58	-0.08	0.750			
0.7900	50556.87	3.5770	3.5774	1.7403	24.56	-0.10	0.750			
0.7958	50933.15	3.5740	3.5738	1.7405	24.55	-0.11	0.750			
0.8003	51216.91	3.5710	3.5711	1.6145	24.54	-0.12	0.750			
0.8052	51532.01	3.5680	3.5679	1.6276	24.53	-0.13	0.750			
0.8101	51843.61	3.5650	3.5652	1.6262	24.52	-0.14	0.750			
0.8150	52159.14	3.5620	3.5620	1.4879	24.51	-0.15	0.750			
0.8189	52406.91	3.5590	3.5598	1.4775	24.51	-0.15	0.750			
0.8235	52702.64	3.5560	3.5572	1.3997	24.50	-0.16	0.750			
0.8277	52972.03	3.5530	3.5541	1.2407	24.49	-0.17	0.750			
0.8314	53210.12	3.5500	3.5512	1.0805	24.49	-0.17	0.750			
0.8346	53416.05	3.5470	3.5475	0.8970	24.50	-0.16	0.750			
0.8372	53581.91	3.5440	3.5429	0.6970	24.50	-0.16	0.750			
0.8382	53645.51	3.5410	3.5408	0.5013	24.51	-0.15	0.750			
0.8394	53720.63	3.5380	3.5380	0.4235	24.51	-0.15	0.750			
0.8405	53794.86	3.5350	3.5349	0.3844	24.51	-0.15	0.750			
0.8416	53863.74	3.5320	3.5320	0.3582	24.51	-0.15	0.750			
0.8426	53928.42	3.5290	3.5290	0.3360	24.52	-0.14	0.750			
0.8436	53990.40	3.5260	3.5260	0.3202	24.52	-0.14	0.750			
0.8445	54050.38	3.5230	3.5230	0.3080	24.52	-0.14	0.750			
0.8454	54106.97	3.5200	3.5200	0.2970	24.52	-0.14	0.750			
0.8463	54162.88	3.5170	3.5170	0.2885	24.53	-0.13	0.750			
0.8471	54216.70	3.5140	3.5140	0.2809	24.53	-0.13	0.750			
0.8480	54270.15	3.5110	3.5110	0.2762	24.53	-0.13	0.750			
0.8488	54322.80	3.5080	3.5080	0.2710	24.54	-0.12	0.750			
0.8496	54374.43	3.5050	3.5050	0.2662	24.54	-0.12	0.750			
0.8504	54424.89	3.5020	3.5020	0.2611	24.54	-0.12	0.750			
0.8512	54474.22	3.4990	3.4990	0.2573	24.54	-0.12	0.750			
0.8519	54523.11	3.4960	3.4960	0.2536	24.55	-0.11	0.750			
0.8527	54570.93	3.4930	3.4930	0.2516	24.55	-0.11	0.750			
0.8534	54619.72	3.4900	3.4899	0.2475	24.55	-0.11	0.750			
0.8542	54667.44	3.4870	3.4870	0.2425	24.55	-0.11	0.750			
0.8549	54714.13	3.4840	3.4840	0.2380	24.55	-0.11	0.750			
0.8556	54759.52	3.4810	3.4812	0.2334	24.55	-0.11	0.750			
0.8563	54803.44	3.4780	3.4779	0.2294	24.55	-0.11	0.750			
0.8570	54850.52	3.4750	3.4746	0.2165	24.56	-0.10	0.750			
0.8577	54890.73	3.4720	3.4718	0.2023	24.56	-0.10	0.750			
0.8583	54928.02	3.4690	3.4692	0.1938	24.56	-0.10	0.750			
0.8588	54965.28	3.4660	3.4665	0.1827	24.56	-0.10	0.750			
0.8592	54990.98	3.4630	3.4647	0.1960	24.56	-0.10	0.750			
0.8598	55026.86	3.4600	3.4588	0.2034	24.56	-0.10	0.750			
0.8604	55065.08	3.4570	3.4561	0.2078	24.56	-0.10	0.750			
0.8610	55104.83	3.4540	3.4532	0.2229	24.56	-0.10	0.750			
0.8617	55151.94	3.4510	3.4514	0.2252	24.56	-0.10	0.750			
0.8626	55203.23	3.4480	3.4490	0.2333	24.56	-0.10	0.750			
0.8633	55252.12	3.4450	3.4452	0.2335	24.57	-0.09	0.750			
0.8640	55295.26	3.4420	3.4418	0.2159	24.57	-0.09	0.750			
0.8646	55335.13	3.4390	3.4386	0.2140	24.57	-0.09	0.750			
0.8651	55368.02	3.4360	3.4360	0.1942	24.57	-0.09	0.750			
0.8657	55404.90	3.4330	3.4329	0.1919	24.57	-0.09	0.750			
0.8663	55441.58	3.4300	3.4300	0.1901	24.57	-0.09	0.750			
0.8668	55478.00	3.4270	3.4271	0.1882	24.57	-0.09	0.750			
0.8674	55513.98	3.4240	3.4240	0.1859	24.58	-0.08	0.750			
0.8680	55549.87	3.4210	3.4209	0.1838	24.58	-0.08	0.750			
0.8685	55584.85	3.4180	3.4180	0.1806	24.58	-0.08	0.750			
0.8690	55618.96	3.4150	3.4151	0.1780	24.58	-0.08	0.750			
0.8696	55652.99	3.4120	3.4120	0.1761	24.58	-0.08	0.750			
0.8701	55686.34	3.4090	3.4090	0.1732	24.58	-0.08	0.750			
0.8706	55719.40	3.4060	3.4059	0.1712	24.59	-0.07	0.750			
0.8711	55752.00	3.4030	3.4031	0.1691	24.59	-0.07	0.750			
0.8716	55784.34	3.4000	3.4000	0.1671	24.59	-0.07	0.750			
0.8721	55816.29	3.3970	3.3971	0.1655	24.59	-0.07	0.750			
0.8726	55847.86	3.3940	3.3939	0.1633	24.59	-0.07	0.750			
0.8731	55878.80	3.3910	3.3910	0.1615	24.59	-0.07	0.750			
0.8736	55909.05	3.3880	3.3880	0.1613	24.59	-0.07	0.750			
0.8741	55940.23	3.3850	3.3850	0.1604	24.60	-0.06	0.750			
0.8745	55971.01	3.3820	3.3820	0.1601	24.60	-0.06	0.750			
0.8750	56002.48	3.3790	3.3788	0.1569	24.60	-0.06	0.750			
0.8755	56033.01	3.3760	3.3759	0.1549	24.60	-0.06	0.750			
0.8760	56062.53	3.3730	3.3736	0.1535	24.60	-0.06	0.750			
0.8764	56091.61	3.3700	3.3701	0.1499	24.60	-0.06	0.750			
0.8769	56120.15	3.3670	3.3666	0.1462	24.61	-0.05	0.750			
0.8773	56146.99	3.3640	3.3639	0.1427	24.61	-0.05	0.750			
0.8777	56174.18	3.3610	3.3612	0.1416	24.61	-0.05	0.750			
0.8781	56201.02	3.3580	3.3581	0.1404	24.61	-0.05	0.750			
0.8786	56228.27	3.3550	3.3550	0.1400	24.61	-0.05	0.750			
0.8790	56254.91	3.3520	3.3519	0.1389	24.61	-0.05	0.750			
0.8794	56280.92	3.3490	3.3490	0.1369	24.61	-0.05	0.750			
0.8798	56307.66	3.3460	3.3460	0.1367	24.62	-0.04	0.750			
0.8802	56333.77	3.3430	3.3430	0.1352	24.62	-0.04	0.750			
0.8806	56359.68	3.3400	3.3401	0.1337	24.62	-0.04	0.750			
0.8810	56385.14	3.3370	3.3370	0.1322	24.62	-0.04	0.750			
0.8814	56410.31	3.3340	3.3340	0.1305	24.62	-0.04	0.750			
0.8818	56435.26	3.3310	3.3310	0.1289	24.62	-0.04	0.750			
0.8822	56459.82	3.3280	3.3280	0.1273	24.63	-0.03	0.750			
0.8826	56484.09	3.3250	3.3249	0.1261	24.63	-0.03	0.750			
0.8829	56508.15	3.3220	3.3220	0.1247	24.63	-0.03	0.750			
0.8833	56531.99	3.3190	3.3190	0.1233	24.63	-0.03	0.750			
0.8837	56555.54	3.3160	3.3159	0.1220	24.63	-0.03	0.750			
0.8840	56578.84	3.3130	3.3130	0.1206	24.63	-0.03	0.750			
0.8844	56601.82	3.3100	3.3100	0.1192	24.63	-0.03	0.750			
0.8848	56624.68	3.3070	3.3070	0.1179	24.64	-0.02	0.750			
0.8851	56647.16	3.3040	3.3040	0.1163	24.64	-0.02	0.750			
0.8855	56669.24	3.3010	3.3010	0.1148	24.64	-0.02	0.750			
0.8858	56691.14	3.2980	3.2980	0.1134	24.64	-0.02	0.750			
0.8861	56712.74	3.2950	3.2951	0.1122	24.64	-0.02	0.750			
0.8865	56734.17	3.2920	3.2920	0.1110	24.64	-0.02	0.750			
0.8868	56755.32	3.2890	3.2890	0.1097	24.64	-0.02	0.750			
0.8871	56776.28	3.2860	3.2860	0.1086	24.65	-0.01	0.750			
0.8875	56797.01	3.2830	3.2830	0.1075	24.65	-0.01	0.750			
0.8878	56817.56	3.2800	3.2800	0.1065	24.65	-0.01	0.750			
0.8881	56837.98	3.2770	3.2771	0.1052	24.65	-0.01	0.750			
0.8884	56858.05	3.2740	3.2739	0.1039	24.65	-0.01	0.750			
0.8887	56877.95	3.2710	3.2710	0.1025	24.65	-0.01	0.750			
0.8890	56897.48	3.2680	3.2680	0.1010	24.65	-0.01	0.750			
0.8893	56916.66	3.2650	3.2650	0.0998	24.65	-0.01	0.750			
0.8896	56935.69	3.2620	3.2620	0.0985	24.66	-0.00	0.750			
0.8899	56954.31	3.2590	3.2589	0.0971	24.66	-0.00	0.750			
0.8902	56972.87	3.2560	3.2560	0.0961	24.66	-0.00	0.750			
0.8905	56991.19	3.2530	3.2531	0.0951	24.66	-0.00	0.750			
0.8908	57009.37	3.2500	3.2500	0.0943	24.66	-0.00	0.750			
0.8911	57027.50	3.2470	3.2469	0.0932	24.66	0.00	0.750			
0.8913	57045.28	3.2440	3.2440	0.0920	24.66	0.00	0.750			
0.8916	57062.84	3.2410	3.2410	0.0908	24.66	0.00	0.750			
0.8919	57080.20	3.2380	3.2380	0.0896	24.66	0.00	0.750			
0.8921	57097.27	3.2350	3.2350	0.0885	24.67	0.01	0.750			
0.8924	57114.15	3.2320	3.2320	0.0873	24.67	0.01	0.750			
0.8927	57130.66	3.2290	3.2292	0.0862	24.67	0.01	0.750			
0.8929	57147.12	3.2260	3.2259	0.0854	24.67	0.01	0.750			
0.8932	57163.53	3.2230	3.2230	0.0842	24.67	0.01	0.750			
0.8934	57179.60	3.2200	3.2200	0.0831	24.67	0.01	0.750			
0.8937	57195.33	3.2170	3.2171	0.0823	24.67	0.01	0.750			
0.8939	57211.05	3.2140	3.2140	0.0815	24.67	0.01	0.750			
0.8942	57226.54	3.2110	3.2109	0.0805	24.67	0.01	0.750			
0.8944	57242.17	3.2080	3.2079	0.0792	24.67	0.01	0.750			
0.8946	57257.24	3.2050	3.2050	0.0779	24.68	0.02	0.750			
0.8949	57272.14	3.2020	3.2022	0.0767	24.68	0.02	0.750			
0.8951	57286.66	3.1990	3.1990	0.0757	24.68	0.02	0.750			
0.8953	57301.24	3.1960	3.1959	0.0747	24.68	0.02	0.750			
0.8956	57315.31	3.1930	3.1930	0.0738	24.68	0.02	0.750			
0.8958	57329.37	3.1900	3.1899	0.0727	24.68	0.02	0.750			
0.8960	57342.84	3.1870	3.1869	0.0715	24.68	0.02	0.750			
0.8962	57356.59	3.1840	3.1840	0.0706	24.68	0.02	0.750			
0.8964	57370.25	3.1810	3.1811	0.0701	24.68	0.02	0.750			
0.8966	57383.62	3.1780	3.1779	0.0691	24.68	0.02	0.750			
0.8968	57396.79	3.1750	3.1750	0.0683	24.68	0.02	0.750			
0.8970	57409.77	3.1720	3.1721	0.0673	24.68	0.02	0.750			
0.8972	57422.65	3.1690	3.1690	0.0664	24.69	0.03	0.750			
0.8974	57435.30	3.1660	3.1660	0.0654	24.69	0.03	0.750			
0.8976	57447.79	3.1630	3.1630	0.0645	24.69	0.03	0.750			
0.8978	57460.05	3.1600	3.1601	0.0636	24.69	0.03	0.750			
0.8980	57472.17	3.1570	3.1571	0.0627	24.69	0.03	0.750			
0.8982	57484.12	3.1540	3.1541	0.0618	24.69	0.03	0.750			
0.8984	57495.89	3.1510	3.1510	0.0608	24.69	0.03	0.750			
0.8986	57507.52	3.1480	3.1478	0.0597	24.69	0.03	0.750			
0.8987	57518.89	3.1450	3.1451	0.0587	24.69	0.03	0.750			
0.8989	57530.06	3.1420	3.1420	0.0577	24.69	0.03	0.750			
0.8991	57541.04	3.1390	3.1389	0.0568	24.69	0.03	0.750			
0.8992	57551.85	3.1360	3.1362	0.0558	24.69	0.03	0.750			
0.8994	57562.48	3.1330	3.1329	0.0548	24.69	0.03	0.750			
0.8996	57572.75	3.1300	3.1300	0.0537	24.69	0.03	0.750			
0.8997	57583.20	3.1270	3.1270	0.0525	24.70	0.04	0.750			
0.8999	57593.17	3.1240	3.1242	0.0514	24.70	0.04	0.750			
0.9000	57602.92	3.1210	3.1210	0.0502	24.70	0.04	0.750			
0.9002	57612.70	3.1180	3.1180	0.0491	24.70	0.04	0.750			
0.9004	57622.47	3.1150	3.1149	0.0466	24.70	0.04	0.750			
0.9005	57631.22	3.1120	3.1118	0.0445	24.70	0.04	0.750			
0.9006	57639.99	3.1090	3.1091	0.0432	24.70	0.04	0.750			
0.9008	57648.04	3.1060	3.1061	0.0407	24.70	0.04	0.750			
0.9009	57655.60	3.1030	3.1034	0.0381	24.70	0.04	0.750			
0.9010	57662.68	3.1000	3.1009	0.0355	24.70	0.04	0.750			
0.9011	57669.25	3.0970	3.0982	0.0330	24.70	0.04	0.750			
0.9012	57675.34	3.0940	3.0953	0.0304	24.70	0.04	0.750			
0.9013	57680.94	3.0910	3.0924	0.0279	24.70	0.04	0.750			
