Ah_balance (normalized)	Ah_balance (mAh)	Voltage - fit (V)	Voltage -  interpolate (V)	dQ/dV (1/V)	Temperature (°C)	Temperature - diff (°C)	Current (C)	R_DC 0ms (mOhm)	R_DC 50ms (mOhm)	R_DC 50 ms PEC (mOhm)
0.0939	6012.50	4.0090	4.0085	-0.0720	5.98	0.01	-0.750			
0.0942	6029.08	4.0060	4.0058	-0.1007	5.98	0.01	-0.750			
0.0946	6051.68	4.0030	4.0029	-0.1289	5.98	0.01	-0.750			
0.0950	6079.82	4.0000	3.9999	-0.1540	5.98	0.01	-0.750			
0.0955	6111.28	3.9970	3.9971	-0.1797	5.97	0.00	-0.750			
0.0961	6148.23	3.9940	3.9941	-0.2050	5.97	0.00	-0.750			
0.0967	6190.98	3.9910	3.9910	-0.2278	5.97	0.00	-0.750			
0.0974	6236.60	3.9880	3.9879	-0.2518	5.97	0.00	-0.750			
0.0982	6287.13	3.9850	3.9851	-0.2750	5.97	0.00	-0.750			
0.0991	6341.96	3.9820	3.9821	-0.3002	5.97	-0.00	-0.750			
0.1000	6402.27	3.9790	3.9789	-0.3226	5.97	-0.00	-0.750			
0.1010	6466.68	3.9760	3.9760	-0.3457	5.97	-0.00	-0.750			
0.1021	6534.47	3.9730	3.9731	-0.3690	5.96	-0.01	-0.750			
0.1033	6608.57	3.9700	3.9701	-0.3927	5.96	-0.01	-0.750			
0.1045	6685.31	3.9670	3.9669	-0.4156	5.96	-0.01	-0.750			
0.1057	6766.99	3.9640	3.9640	-0.4426	5.96	-0.01	-0.750			
0.1071	6855.03	3.9610	3.9609	-0.4658	5.96	-0.01	-0.750			
0.1086	6947.76	3.9580	3.9579	-0.4934	5.95	-0.02	-0.750			
0.1101	7044.83	3.9550	3.9550	-0.5158	5.95	-0.02	-0.750			
0.1117	7146.72	3.9520	3.9519	-0.5360	5.95	-0.02	-0.750			
0.1133	7252.15	3.9490	3.9490	-0.5565	5.94	-0.03	-0.750			
0.1150	7359.33	3.9460	3.9460	-0.5741	5.94	-0.03	-0.750			
0.1167	7470.20	3.9430	3.9430	-0.5974	5.94	-0.03	-0.750			
0.1186	7590.12	3.9400	3.9399	-0.6170	5.93	-0.04	-0.750			
0.1205	7709.79	3.9370	3.9370	-0.6316	5.93	-0.04	-0.750			
0.1224	7834.74	3.9340	3.9340	-0.6474	5.92	-0.05	-0.750			
0.1244	7961.35	3.9310	3.9310	-0.6571	5.92	-0.05	-0.750			
0.1264	8087.93	3.9280	3.9280	-0.6676	5.92	-0.05	-0.750			
0.1284	8216.44	3.9250	3.9250	-0.6755	5.92	-0.05	-0.750			
0.1304	8346.04	3.9220	3.9220	-0.6830	5.92	-0.05	-0.750			
0.1325	8479.53	3.9190	3.9191	-0.6952	5.92	-0.05	-0.750			
0.1346	8614.11	3.9160	3.9160	-0.7016	5.92	-0.05	-0.750			
0.1367	8750.30	3.9130	3.9130	-0.7068	5.92	-0.05	-0.750			
0.1389	8887.66	3.9100	3.9100	-0.7118	5.92	-0.05	-0.750			
0.1410	9022.89	3.9070	3.9070	-0.7197	5.92	-0.05	-0.750			
0.1432	9163.35	3.9040	3.9040	-0.7240	5.91	-0.06	-0.750			
0.1453	9301.77	3.9010	3.9010	-0.7322	5.91	-0.06	-0.750			
0.1475	9442.87	3.8980	3.8979	-0.7396	5.91	-0.06	-0.750			
0.1498	9586.67	3.8950	3.8950	-0.7434	5.91	-0.06	-0.750			
0.1521	9731.23	3.8920	3.8919	-0.7465	5.92	-0.05	-0.750			
0.1543	9874.00	3.8890	3.8891	-0.7531	5.92	-0.05	-0.750			
0.1565	10019.11	3.8860	3.8860	-0.7504	5.92	-0.05	-0.750			
0.1588	10165.74	3.8830	3.8829	-0.7599	5.93	-0.04	-0.750			
0.1611	10309.74	3.8800	3.8803	-0.7603	5.93	-0.04	-0.750			
0.1634	10456.69	3.8770	3.8770	-0.7638	5.93	-0.04	-0.750			
0.1657	10603.95	3.8740	3.8739	-0.7705	5.94	-0.03	-0.750			
0.1680	10751.81	3.8710	3.8710	-0.7679	5.94	-0.03	-0.750			
0.1703	10901.74	3.8680	3.8680	-0.7707	5.95	-0.02	-0.750			
0.1726	11048.94	3.8650	3.8649	-0.7706	5.95	-0.02	-0.750			
0.1749	11194.91	3.8620	3.8621	-0.7707	5.95	-0.02	-0.750			
0.1772	11342.23	3.8590	3.8590	-0.7781	5.96	-0.01	-0.750			
0.1796	11492.55	3.8560	3.8559	-0.7794	5.96	-0.01	-0.750			
0.1819	11642.66	3.8530	3.8529	-0.7792	5.96	-0.01	-0.750			
0.1843	11794.65	3.8500	3.8501	-0.7856	5.97	-0.00	-0.750			
0.1866	11944.81	3.8470	3.8472	-0.7848	5.97	0.00	-0.750			
0.1890	12093.07	3.8440	3.8440	-0.7895	5.98	0.01	-0.750			
0.1913	12245.44	3.8410	3.8408	-0.7948	5.99	0.02	-0.750			
0.1937	12398.31	3.8380	3.8381	-0.7913	6.00	0.03	-0.750			
0.1961	12552.51	3.8350	3.8350	-0.7963	6.00	0.03	-0.750			
0.1986	12707.86	3.8320	3.8323	-0.7994	6.01	0.04	-0.750			
0.2009	12860.52	3.8290	3.8289	-0.7950	6.02	0.05	-0.750			
0.2033	13010.63	3.8260	3.8260	-0.7952	6.03	0.06	-0.750			
0.2057	13162.64	3.8230	3.8230	-0.7952	6.03	0.06	-0.750			
0.2081	13316.21	3.8200	3.8199	-0.8040	6.04	0.07	-0.750			
0.2105	13471.73	3.8170	3.8172	-0.8089	6.05	0.08	-0.750			
0.2129	13627.49	3.8140	3.8139	-0.8077	6.06	0.09	-0.750			
0.2154	13783.02	3.8110	3.8110	-0.8096	6.07	0.10	-0.750			
0.2178	13939.12	3.8080	3.8080	-0.8060	6.08	0.11	-0.750			
0.2202	14093.41	3.8050	3.8050	-0.8016	6.09	0.12	-0.750			
0.2226	14248.81	3.8020	3.8020	-0.8028	6.10	0.13	-0.750			
0.2250	14399.56	3.7990	3.7990	-0.8068	6.11	0.14	-0.750			
0.2274	14552.43	3.7960	3.7960	-0.8141	6.12	0.15	-0.750			
0.2299	14711.51	3.7930	3.7929	-0.8109	6.13	0.16	-0.750			
0.2323	14867.76	3.7900	3.7899	-0.8096	6.14	0.17	-0.750			
0.2348	15027.13	3.7870	3.7872	-0.8079	6.15	0.18	-0.750			
0.2372	15180.51	3.7840	3.7838	-0.8025	6.15	0.18	-0.750			
0.2395	15330.59	3.7810	3.7810	-0.8023	6.16	0.19	-0.750			
0.2419	15483.19	3.7780	3.7779	-0.8064	6.16	0.19	-0.750			
0.2444	15638.46	3.7750	3.7750	-0.8102	6.17	0.20	-0.750			
0.2468	15797.92	3.7720	3.7718	-0.8187	6.18	0.21	-0.750			
0.2493	15956.52	3.7690	3.7692	-0.8198	6.18	0.21	-0.750			
0.2518	16113.93	3.7660	3.7660	-0.8244	6.19	0.22	-0.750			
0.2542	16271.63	3.7630	3.7630	-0.8198	6.20	0.23	-0.750			
0.2567	16427.31	3.7600	3.7600	-0.8131	6.21	0.24	-0.750			
0.2591	16584.59	3.7570	3.7570	-0.8199	6.22	0.25	-0.750			
0.2616	16744.74	3.7540	3.7541	-0.8185	6.23	0.26	-0.750			
0.2641	16899.67	3.7510	3.7509	-0.8176	6.24	0.27	-0.750			
0.2665	17057.38	3.7480	3.7480	-0.8212	6.24	0.27	-0.750			
0.2690	17213.80	3.7450	3.7449	-0.8210	6.25	0.28	-0.750			
0.2715	17373.63	3.7420	3.7419	-0.8237	6.26	0.29	-0.750			
0.2739	17531.87	3.7390	3.7391	-0.8262	6.26	0.29	-0.750			
0.2764	17689.58	3.7360	3.7360	-0.8293	6.27	0.30	-0.750			
0.2789	17850.81	3.7330	3.7329	-0.8334	6.28	0.31	-0.750			
0.2814	18008.34	3.7300	3.7299	-0.8295	6.29	0.32	-0.750			
0.2839	18170.93	3.7270	3.7270	-0.8370	6.30	0.33	-0.750			
0.2864	18329.98	3.7240	3.7241	-0.8406	6.31	0.34	-0.750			
0.2889	18492.59	3.7210	3.7209	-0.8436	6.32	0.35	-0.750			
0.2915	18654.82	3.7180	3.7179	-0.8494	6.33	0.36	-0.750			
0.2940	18818.24	3.7150	3.7149	-0.8479	6.34	0.37	-0.750			
0.2966	18982.60	3.7120	3.7120	-0.8585	6.34	0.37	-0.750			
0.2992	19146.75	3.7090	3.7091	-0.8622	6.35	0.38	-0.750			
0.3018	19312.01	3.7060	3.7059	-0.8693	6.36	0.39	-0.750			
0.3043	19478.02	3.7030	3.7029	-0.8767	6.36	0.39	-0.750			
0.3069	19644.32	3.7000	3.7001	-0.8837	6.36	0.39	-0.750			
0.3097	19818.87	3.6970	3.6970	-0.8972	6.37	0.40	-0.750			
0.3124	19993.80	3.6940	3.6939	-0.9087	6.37	0.40	-0.750			
0.3151	20168.18	3.6910	3.6910	-0.9107	6.38	0.41	-0.750			
0.3178	20341.79	3.6880	3.6879	-0.9159	6.39	0.42	-0.750			
0.3206	20517.98	3.6850	3.6851	-0.9250	6.39	0.42	-0.750			
0.3234	20697.60	3.6820	3.6821	-0.9343	6.40	0.43	-0.750			
0.3262	20876.00	3.6790	3.6789	-0.9477	6.41	0.44	-0.750			
0.3291	21059.81	3.6760	3.6761	-0.9599	6.41	0.44	-0.750			
0.3319	21244.31	3.6730	3.6730	-0.9677	6.42	0.45	-0.750			
0.3349	21433.34	3.6700	3.6699	-0.9838	6.43	0.46	-0.750			
0.3378	21621.47	3.6670	3.6671	-0.9960	6.43	0.46	-0.750			
0.3408	21813.91	3.6640	3.6639	-1.0048	6.43	0.46	-0.750			
0.3439	22008.12	3.6610	3.6610	-1.0158	6.43	0.46	-0.750			
0.3469	22203.72	3.6580	3.6580	-1.0169	6.43	0.46	-0.750			
0.3500	22401.31	3.6550	3.6551	-1.0364	6.43	0.46	-0.750			
0.3532	22601.89	3.6520	3.6520	-1.0405	6.43	0.46	-0.750			
0.3562	22799.65	3.6490	3.6489	-1.0465	6.43	0.46	-0.750			
0.3594	23001.43	3.6460	3.6459	-1.0535	6.43	0.46	-0.750			
0.3626	23204.30	3.6430	3.6429	-1.0758	6.43	0.46	-0.750			
0.3658	23411.41	3.6400	3.6400	-1.0930	6.43	0.46	-0.750			
0.3691	23623.41	3.6370	3.6371	-1.1134	6.43	0.46	-0.750			
0.3725	23838.36	3.6340	3.6340	-1.1244	6.43	0.46	-0.750			
0.3759	24059.43	3.6310	3.6310	-1.1519	6.43	0.46	-0.750			
0.3794	24282.70	3.6280	3.6280	-1.1639	6.44	0.47	-0.750			
0.3829	24508.36	3.6250	3.6250	-1.1762	6.45	0.48	-0.750			
0.3865	24735.51	3.6220	3.6222	-1.1857	6.45	0.48	-0.750			
0.3901	24965.61	3.6190	3.6189	-1.1961	6.45	0.48	-0.750			
0.3937	25197.13	3.6160	3.6160	-1.2019	6.45	0.48	-0.750			
0.3973	25426.69	3.6130	3.6129	-1.2150	6.45	0.48	-0.750			
0.4010	25661.14	3.6100	3.6099	-1.2386	6.45	0.48	-0.750			
0.4047	25899.75	3.6070	3.6070	-1.2520	6.45	0.48	-0.750			
0.4084	26140.62	3.6040	3.6038	-1.2630	6.45	0.48	-0.750			
0.4122	26383.57	3.6010	3.6011	-1.2781	6.45	0.48	-0.750	0.474	1.099	
0.4162	26635.34	3.5980	3.5980	-1.2924	6.45	0.48	-0.750			
0.4200	26882.76	3.5950	3.5949	-1.3072	6.45	0.48	-0.750			
0.4239	27131.39	3.5920	3.5922	-1.3209	6.45	0.48	-0.750			
0.4280	27389.67	3.5890	3.5889	-1.3327	6.45	0.48	-0.750			
0.4320	27650.39	3.5860	3.5860	-1.3553	6.45	0.48	-0.750			
0.4361	27912.06	3.5830	3.5832	-1.3777	6.45	0.48	-0.750			
0.4403	28179.46	3.5800	3.5799	-1.3867	6.45	0.48	-0.750			
0.4445	28448.55	3.5770	3.5768	-1.3945	6.46	0.49	-0.750			
0.4487	28714.13	3.5740	3.5742	-1.4175	6.46	0.49	-0.750			
0.4529	28986.95	3.5710	3.5710	-1.4571	6.46	0.49	-0.750			
0.4574	29270.64	3.5680	3.5678	-1.4763	6.47	0.50	-0.750			
0.4618	29553.58	3.5650	3.5653	-1.4932	6.47	0.50	-0.750			
0.4663	29845.72	3.5620	3.5619	-1.5111	6.47	0.50	-0.750			
0.4710	30141.71	3.5590	3.5588	-1.5177	6.47	0.50	-0.750			
0.4754	30428.34	3.5560	3.5558	-1.5141	6.47	0.50	-0.750			
0.4801	30726.62	3.5530	3.5529	-1.5277	6.47	0.50	-0.750			
0.4846	31016.77	3.5500	3.5502	-1.5330	6.47	0.50	-0.750			
0.4893	31314.54	3.5470	3.5469	-1.5515	6.47	0.50	-0.750			
0.4939	31611.38	3.5440	3.5439	-1.5717	6.47	0.50	-0.750			
0.4987	31918.38	3.5410	3.5412	-1.6117	6.47	0.50	-0.750			
0.5036	32228.26	3.5380	3.5382	-1.6308	6.47	0.50	-0.750			
0.5085	32545.49	3.5350	3.5350	-1.6417	6.47	0.50	-0.750			
0.5136	32868.00	3.5320	3.5318	-1.6562	6.47	0.50	-0.750			
0.5185	33185.92	3.5290	3.5290	-1.6784	6.48	0.51	-0.750			
0.5236	33508.90	3.5260	3.5261	-1.6926	6.49	0.52	-0.750			
0.5286	33832.39	3.5230	3.5230	-1.6954	6.49	0.52	-0.750			
0.5336	34152.54	3.5200	3.5200	-1.7004	6.50	0.53	-0.750			
0.5389	34487.65	3.5170	3.5168	-1.6918	6.50	0.53	-0.750			
0.5440	34817.27	3.5140	3.5137	-1.7107	6.51	0.54	-0.750			
0.5491	35143.67	3.5110	3.5111	-1.7019	6.51	0.54	-0.750			
0.5542	35467.56	3.5080	3.5076	-1.6842	6.51	0.54	-0.750			
0.5592	35789.26	3.5050	3.5052	-1.6856	6.51	0.54	-0.750			
0.5643	36113.85	3.5020	3.5019	-1.6781	6.52	0.55	-0.750			
0.5695	36446.82	3.4990	3.4988	-1.7089	6.52	0.55	-0.750			
0.5746	36771.36	3.4960	3.4959	-1.6844	6.53	0.56	-0.750			
0.5796	37093.76	3.4930	3.4930	-1.6856	6.54	0.57	-0.750			
0.5847	37419.31	3.4900	3.4902	-1.6649	6.55	0.58	-0.750			
0.5897	37737.88	3.4870	3.4869	-1.6494	6.56	0.59	-0.750			
0.5946	38056.90	3.4840	3.4838	-1.6453	6.56	0.59	-0.750			
0.5994	38364.22	3.4810	3.4810	-1.6345	6.57	0.60	-0.750			
0.6043	38674.99	3.4780	3.4782	-1.6254	6.59	0.62	-0.750			
0.6092	38989.43	3.4750	3.4747	-1.6102	6.60	0.63	-0.750			
0.6141	39301.52	3.4720	3.4720	-1.5918	6.62	0.65	-0.750			
0.6189	39610.07	3.4690	3.4689	-1.5947	6.62	0.65	-0.750			
0.6237	39916.47	3.4660	3.4660	-1.5657	6.63	0.66	-0.750			
0.6283	40208.02	3.4630	3.4631	-1.5295	6.64	0.67	-0.750			
0.6328	40499.19	3.4600	3.4600	-1.5182	6.65	0.68	-0.750			
0.6374	40793.00	3.4570	3.4569	-1.4979	6.66	0.69	-0.750			
0.6419	41081.69	3.4540	3.4538	-1.4745	6.67	0.70	-0.750			
0.6462	41358.74	3.4510	3.4510	-1.4519	6.68	0.71	-0.750			
0.6506	41639.13	3.4480	3.4479	-1.4273	6.70	0.73	-0.750			
0.6548	41905.84	3.4450	3.4449	-1.4499	6.71	0.74	-0.750			
0.6591	42179.46	3.4420	3.4420	-1.4409	6.72	0.75	-0.750			
0.6635	42460.90	3.4390	3.4386	-1.4327	6.74	0.77	-0.750			
0.6679	42745.64	3.4360	3.4363	-1.4056	6.75	0.78	-0.750			
0.6722	43022.47	3.4330	3.4333	-1.3686	6.77	0.80	-0.750			
0.6762	43279.45	3.4300	3.4300	-1.3111	6.78	0.81	-0.750			
0.6801	43526.86	3.4270	3.4268	-1.2582	6.79	0.82	-0.750			
0.6836	43748.69	3.4240	3.4240	-1.1930	6.80	0.83	-0.750			
0.6871	43973.69	3.4210	3.4210	-1.1663	6.82	0.85	-0.750			
0.6906	44198.04	3.4180	3.4180	-1.1479	6.84	0.87	-0.750			
0.6940	44416.28	3.4150	3.4150	-1.1171	6.86	0.89	-0.750			
0.6973	44627.76	3.4120	3.4119	-1.0880	6.88	0.91	-0.750			
0.7006	44835.74	3.4090	3.4090	-1.0629	6.90	0.93	-0.750			
0.7037	45034.93	3.4060	3.4060	-1.0305	6.92	0.95	-0.750			
0.7067	45229.55	3.4030	3.4030	-1.0050	6.93	0.96	-0.750			
0.7097	45419.00	3.4000	3.4000	-0.9769	6.94	0.97	-0.750			
0.7126	45605.48	3.3970	3.3969	-0.9500	6.96	0.99	-0.750			
0.7154	45786.35	3.3940	3.3940	-0.9273	6.96	0.99	-0.750			
0.7181	45961.48	3.3910	3.3909	-0.9001	6.97	1.00	-0.750			
0.7208	46131.32	3.3880	3.3880	-0.8749	6.98	1.01	-0.750			
0.7234	46297.92	3.3850	3.3851	-0.8487	6.99	1.02	-0.750			
0.7259	46457.41	3.3820	3.3820	-0.8211	7.01	1.04	-0.750			
0.7283	46612.34	3.3790	3.3789	-0.8018	7.02	1.05	-0.750			
0.7307	46763.85	3.3760	3.3760	-0.7799	7.04	1.07	-0.750			
0.7330	46910.23	3.3730	3.3729	-0.7661	7.05	1.08	-0.750			
0.7353	47056.89	3.3700	3.3700	-0.7730	7.07	1.10	-0.750			
