Ah_balance (normalized)	Ah_balance (mAh)	Voltage - fit (V)	Voltage -  interpolate (V)	dQ/dV (1/V)	Temperature (°C)	Temperature - diff (°C)	Current (C)	R_DC 0ms (mOhm)	R_DC 50ms (mOhm)	R_DC 50 ms PEC (mOhm)
-0.1382	-8842.77	4.0060	4.0056	-0.0898	6.00	0.00	-0.750			
-0.1379	-8822.76	4.0030	4.0028	-0.1186	6.00	0.00	-0.750			
-0.1374	-8796.48	4.0000	3.9999	-0.1459	6.00	-0.00	-0.750			
-0.1370	-8765.68	3.9970	3.9970	-0.1710	6.00	-0.00	-0.750			
-0.1364	-8730.26	3.9940	3.9941	-0.1950	5.99	-0.01	-0.750			
-0.1358	-8689.51	3.9910	3.9910	-0.2195	5.99	-0.01	-0.750			
-0.1351	-8645.36	3.9880	3.9880	-0.2418	5.99	-0.01	-0.750			
-0.1343	-8597.00	3.9850	3.9850	-0.2644	5.99	-0.01	-0.750			
-0.1335	-8544.46	3.9820	3.9820	-0.2879	5.98	-0.02	-0.750			
-0.1326	-8486.81	3.9790	3.9790	-0.3114	5.98	-0.02	-0.750			
-0.1316	-8424.82	3.9760	3.9760	-0.3353	5.98	-0.02	-0.750			
-0.1306	-8358.21	3.9730	3.9730	-0.3600	5.97	-0.03	-0.750			
-0.1295	-8287.10	3.9700	3.9700	-0.3862	5.97	-0.03	-0.750			
-0.1283	-8210.54	3.9670	3.9670	-0.4116	5.96	-0.04	-0.750			
-0.1270	-8128.70	3.9640	3.9640	-0.4368	5.96	-0.04	-0.750			
-0.1257	-8042.26	3.9610	3.9610	-0.4614	5.95	-0.05	-0.750			
-0.1242	-7950.39	3.9580	3.9580	-0.4847	5.95	-0.05	-0.750			
-0.1227	-7854.86	3.9550	3.9550	-0.5075	5.95	-0.05	-0.750			
-0.1212	-7755.39	3.9520	3.9520	-0.5280	5.94	-0.06	-0.750			
-0.1196	-7651.72	3.9490	3.9490	-0.5451	5.94	-0.06	-0.750			
-0.1179	-7544.99	3.9460	3.9459	-0.5682	5.94	-0.06	-0.750			
-0.1161	-7433.54	3.9430	3.9430	-0.5858	5.94	-0.06	-0.750			
-0.1144	-7318.58	3.9400	3.9400	-0.6027	5.93	-0.07	-0.750			
-0.1125	-7201.45	3.9370	3.9372	-0.6193	5.93	-0.07	-0.750			
-0.1106	-7081.23	3.9340	3.9340	-0.6354	5.93	-0.07	-0.750			
-0.1087	-6957.33	3.9310	3.9310	-0.6506	5.93	-0.07	-0.750			
-0.1067	-6830.47	3.9280	3.9279	-0.6653	5.93	-0.07	-0.750			
-0.1047	-6700.57	3.9250	3.9250	-0.6780	5.93	-0.07	-0.750			
-0.1026	-6568.51	3.9220	3.9220	-0.6861	5.93	-0.07	-0.750			
-0.1005	-6434.82	3.9190	3.9191	-0.6941	5.93	-0.07	-0.750			
-0.0985	-6301.76	3.9160	3.9159	-0.7012	5.93	-0.07	-0.750			
-0.0964	-6167.26	3.9130	3.9129	-0.7063	5.93	-0.07	-0.750			
-0.0942	-6031.13	3.9100	3.9100	-0.7163	5.93	-0.07	-0.750			
-0.0921	-5892.89	3.9070	3.9070	-0.7212	5.93	-0.07	-0.750			
-0.0899	-5751.92	3.9040	3.9040	-0.7301	5.93	-0.07	-0.750			
-0.0877	-5610.55	3.9010	3.9011	-0.7340	5.93	-0.07	-0.750			
-0.0855	-5469.36	3.8980	3.8980	-0.7380	5.93	-0.07	-0.750			
-0.0832	-5327.99	3.8950	3.8950	-0.7417	5.94	-0.06	-0.750			
-0.0810	-5185.33	3.8920	3.8920	-0.7454	5.94	-0.06	-0.750			
-0.0788	-5042.31	3.8890	3.8889	-0.7509	5.94	-0.06	-0.750			
-0.0765	-4897.18	3.8860	3.8860	-0.7569	5.95	-0.05	-0.750			
-0.0742	-4751.17	3.8830	3.8830	-0.7605	5.95	-0.05	-0.750			
-0.0719	-4604.77	3.8800	3.8800	-0.7646	5.96	-0.04	-0.750			
-0.0697	-4457.62	3.8770	3.8771	-0.7677	5.96	-0.04	-0.750			
-0.0673	-4309.65	3.8740	3.8740	-0.7697	5.96	-0.04	-0.750			
-0.0650	-4161.25	3.8710	3.8709	-0.7722	5.97	-0.03	-0.750			
-0.0627	-4013.79	3.8680	3.8682	-0.7731	5.97	-0.03	-0.750			
-0.0604	-3864.84	3.8650	3.8650	-0.7756	5.97	-0.03	-0.750			
-0.0580	-3714.92	3.8620	3.8620	-0.7792	5.98	-0.02	-0.750			
-0.0557	-3565.23	3.8590	3.8590	-0.7801	5.98	-0.02	-0.750			
-0.0534	-3415.66	3.8560	3.8561	-0.7827	5.98	-0.02	-0.750			
-0.0510	-3264.69	3.8530	3.8530	-0.7847	5.99	-0.01	-0.750			
-0.0487	-3113.94	3.8500	3.8500	-0.7863	5.99	-0.01	-0.750			
-0.0463	-2962.98	3.8470	3.8470	-0.7875	6.00	-0.00	-0.750			
-0.0439	-2811.56	3.8440	3.8440	-0.7891	6.01	0.01	-0.750			
-0.0416	-2660.32	3.8410	3.8410	-0.7901	6.01	0.01	-0.750			
-0.0392	-2508.20	3.8380	3.8380	-0.7915	6.02	0.02	-0.750			
-0.0368	-2356.27	3.8350	3.8350	-0.7920	6.02	0.02	-0.750			
-0.0344	-2204.62	3.8320	3.8320	-0.7984	6.03	0.03	-0.750			
-0.0321	-2051.35	3.8290	3.8290	-0.8006	6.03	0.03	-0.750			
-0.0296	-1896.18	3.8260	3.8259	-0.8006	6.04	0.04	-0.750			
-0.0272	-1742.10	3.8230	3.8229	-0.8014	6.05	0.05	-0.750			
-0.0248	-1587.46	3.8200	3.8201	-0.8004	6.05	0.05	-0.750			
-0.0224	-1433.75	3.8170	3.8170	-0.7985	6.05	0.05	-0.750			
-0.0200	-1281.56	3.8140	3.8140	-0.8029	6.06	0.06	-0.750			
-0.0176	-1127.67	3.8110	3.8110	-0.8030	6.06	0.06	-0.750			
-0.0152	-972.83	3.8080	3.8079	-0.8065	6.07	0.07	-0.750			
-0.0128	-817.28	3.8050	3.8052	-0.8085	6.07	0.07	-0.750			
-0.0103	-661.05	3.8020	3.8020	-0.8090	6.08	0.08	-0.750			
-0.0079	-505.24	3.7990	3.7990	-0.8100	6.09	0.09	-0.750			
-0.0055	-349.99	3.7960	3.7960	-0.8062	6.09	0.09	-0.750			
-0.0031	-195.65	3.7930	3.7930	-0.8065	6.10	0.10	-0.750			
-0.0006	-40.99	3.7900	3.7901	-0.8053	6.11	0.11	-0.750			
0.0018	113.15	3.7870	3.7870	-0.8056	6.11	0.11	-0.750			
0.0042	267.24	3.7840	3.7839	-0.8086	6.12	0.12	-0.750			
0.0066	422.61	3.7810	3.7810	-0.8105	6.13	0.13	-0.750			
0.0090	578.78	3.7780	3.7780	-0.8108	6.13	0.13	-0.750			
0.0115	736.47	3.7750	3.7750	-0.8142	6.14	0.14	-0.750			
0.0139	892.21	3.7720	3.7720	-0.8147	6.14	0.14	-0.750			
0.0164	1048.34	3.7690	3.7690	-0.8144	6.15	0.15	-0.750			
0.0188	1204.74	3.7660	3.7660	-0.8142	6.16	0.16	-0.750			
0.0212	1359.94	3.7630	3.7630	-0.8153	6.16	0.16	-0.750			
0.0237	1517.83	3.7600	3.7600	-0.8204	6.17	0.17	-0.750			
0.0262	1675.60	3.7570	3.7571	-0.8236	6.17	0.17	-0.750			
0.0286	1833.58	3.7540	3.7539	-0.8268	6.18	0.18	-0.750			
0.0311	1993.09	3.7510	3.7510	-0.8270	6.19	0.19	-0.750			
0.0336	2152.23	3.7480	3.7480	-0.8288	6.20	0.20	-0.750			
0.0361	2311.56	3.7450	3.7450	-0.8281	6.21	0.21	-0.750			
0.0386	2471.10	3.7420	3.7420	-0.8260	6.21	0.21	-0.750			
0.0411	2628.65	3.7390	3.7390	-0.8313	6.22	0.22	-0.750			
0.0436	2788.19	3.7360	3.7360	-0.8312	6.23	0.23	-0.750			
0.0461	2947.88	3.7330	3.7330	-0.8323	6.24	0.24	-0.750			
0.0486	3108.71	3.7300	3.7300	-0.8359	6.25	0.25	-0.750			
0.0511	3269.14	3.7270	3.7270	-0.8386	6.25	0.25	-0.750			
0.0536	3430.28	3.7240	3.7240	-0.8442	6.26	0.26	-0.750			
0.0561	3591.76	3.7210	3.7209	-0.8490	6.26	0.26	-0.750			
0.0587	3754.13	3.7180	3.7180	-0.8518	6.26	0.26	-0.750			
0.0613	3920.14	3.7150	3.7150	-0.8566	6.27	0.27	-0.750			
0.0638	4085.42	3.7120	3.7120	-0.8620	6.27	0.27	-0.750			
0.0664	4250.76	3.7090	3.7090	-0.8701	6.28	0.28	-0.750			
0.0690	4417.20	3.7060	3.7059	-0.8754	6.29	0.29	-0.750			
0.0716	4585.28	3.7030	3.7030	-0.8825	6.30	0.30	-0.750			
0.0743	4756.34	3.7000	3.7000	-0.8921	6.31	0.31	-0.750			
0.0770	4929.57	3.6970	3.6970	-0.9016	6.32	0.32	-0.750			
0.0798	5104.02	3.6940	3.6940	-0.9075	6.33	0.33	-0.750			
0.0825	5277.29	3.6910	3.6910	-0.9116	6.33	0.33	-0.750			
0.0852	5452.36	3.6880	3.6880	-0.9186	6.34	0.34	-0.750			
0.0880	5629.89	3.6850	3.6851	-0.9270	6.35	0.35	-0.750			
0.0907	5807.63	3.6820	3.6819	-0.9384	6.36	0.36	-0.750			
0.0936	5988.68	3.6790	3.6790	-0.9496	6.36	0.36	-0.750			
0.0964	6172.16	3.6760	3.6760	-0.9603	6.36	0.36	-0.750			
0.0993	6358.01	3.6730	3.6730	-0.9732	6.37	0.37	-0.750			
0.1023	6546.33	3.6700	3.6700	-0.9859	6.38	0.38	-0.750			
0.1053	6736.78	3.6670	3.6670	-0.9963	6.39	0.39	-0.750			
0.1083	6929.19	3.6640	3.6640	-1.0054	6.40	0.40	-0.750			
0.1113	7122.29	3.6610	3.6610	-1.0165	6.41	0.41	-0.750			
0.1144	7319.52	3.6580	3.6580	-1.0290	6.41	0.41	-0.750			
0.1175	7517.76	3.6550	3.6549	-1.0411	6.41	0.41	-0.750			
0.1206	7717.48	3.6520	3.6520	-1.0525	6.42	0.42	-0.750			
0.1238	7920.61	3.6490	3.6490	-1.0675	6.42	0.42	-0.750			
0.1270	8128.49	3.6460	3.6459	-1.0831	6.43	0.43	-0.750			
0.1303	8337.83	3.6430	3.6430	-1.0958	6.43	0.43	-0.750			
0.1336	8547.44	3.6400	3.6401	-1.1088	6.44	0.44	-0.750			
0.1369	8762.01	3.6370	3.6371	-1.1273	6.45	0.45	-0.750			
0.1403	8981.15	3.6340	3.6339	-1.1425	6.45	0.45	-0.750			
0.1438	9202.86	3.6310	3.6310	-1.1558	6.46	0.46	-0.750			
0.1473	9426.12	3.6280	3.6280	-1.1679	6.47	0.47	-0.750			
0.1508	9651.20	3.6250	3.6250	-1.1867	6.47	0.47	-0.750			
0.1544	9880.98	3.6220	3.6220	-1.1996	6.48	0.48	-0.750			
0.1580	10111.66	3.6190	3.6190	-1.2164	6.48	0.48	-0.750			
0.1616	10344.16	3.6160	3.6161	-1.2403	6.49	0.49	-0.750			
0.1654	10587.66	3.6130	3.6130	-1.2565	6.50	0.50	-0.750			
0.1692	10830.52	3.6100	3.6100	-1.2704	6.50	0.50	-0.750			
0.1731	11075.81	3.6070	3.6070	-1.2877	6.51	0.51	-0.750			
0.1770	11325.34	3.6040	3.6039	-1.3021	6.51	0.51	-0.750			
0.1809	11578.34	3.6010	3.6009	-1.3189	6.52	0.52	-0.750			
0.1849	11830.64	3.5980	3.5982	-1.3365	6.53	0.53	-0.750	0.474	1.131	
0.1889	12087.62	3.5950	3.5951	-1.3517	6.53	0.53	-0.750			
0.1930	12351.61	3.5920	3.5919	-1.3745	6.54	0.54	-0.750			
0.1971	12615.32	3.5890	3.5890	-1.3934	6.55	0.55	-0.750			
0.2013	12884.86	3.5860	3.5860	-1.4071	6.56	0.56	-0.750			
0.2056	13159.81	3.5830	3.5830	-1.4274	6.56	0.56	-0.750			
0.2099	13434.51	3.5800	3.5800	-1.4482	6.57	0.57	-0.750			
0.2142	13711.31	3.5770	3.5770	-1.4683	6.57	0.57	-0.750			
0.2187	13995.92	3.5740	3.5739	-1.4947	6.58	0.58	-0.750			
0.2232	14286.30	3.5710	3.5710	-1.5177	6.59	0.59	-0.750			
0.2279	14582.88	3.5680	3.5679	-1.5281	6.59	0.59	-0.750			
0.2325	14878.66	3.5650	3.5649	-1.5524	6.60	0.60	-0.750			
0.2372	15177.62	3.5620	3.5622	-1.5703	6.61	0.61	-0.750			
0.2419	15481.52	3.5590	3.5589	-1.5767	6.61	0.61	-0.750			
0.2466	15784.88	3.5560	3.5559	-1.5885	6.61	0.61	-0.750			
0.2514	16090.72	3.5530	3.5530	-1.6116	6.61	0.61	-0.750			
0.2563	16402.86	3.5500	3.5501	-1.6329	6.62	0.62	-0.750			
0.2612	16717.65	3.5470	3.5470	-1.6411	6.63	0.63	-0.750			
0.2661	17031.50	3.5440	3.5439	-1.6551	6.63	0.63	-0.750			
0.2712	17353.63	3.5410	3.5409	-1.6755	6.64	0.64	-0.750			
0.2762	17677.21	3.5380	3.5380	-1.6970	6.64	0.64	-0.750			
0.2813	18002.72	3.5350	3.5352	-1.7033	6.66	0.66	-0.750			
0.2864	18329.10	3.5320	3.5320	-1.7180	6.67	0.67	-0.750			
0.2916	18664.48	3.5290	3.5290	-1.7231	6.67	0.67	-0.750			
0.2968	18997.80	3.5260	3.5258	-1.7341	6.67	0.67	-0.750			
0.3021	19331.95	3.5230	3.5231	-1.7537	6.67	0.67	-0.750			
0.3073	19667.91	3.5200	3.5200	-1.7551	6.68	0.68	-0.750			
0.3126	20005.11	3.5170	3.5172	-1.7619	6.69	0.69	-0.750			
0.3179	20345.74	3.5140	3.5141	-1.7550	6.70	0.70	-0.750			
0.3232	20685.01	3.5110	3.5110	-1.7579	6.71	0.71	-0.750			
0.3285	21023.04	3.5080	3.5080	-1.7611	6.72	0.72	-0.750			
0.3338	21361.14	3.5050	3.5049	-1.7473	6.72	0.72	-0.750			
0.3390	21694.31	3.5020	3.5020	-1.7372	6.73	0.73	-0.750			
0.3442	22026.28	3.4990	3.4990	-1.7352	6.74	0.74	-0.750			
0.3494	22359.06	3.4960	3.4960	-1.7243	6.74	0.74	-0.750			
0.3545	22690.82	3.4930	3.4930	-1.7149	6.75	0.75	-0.750			
0.3596	23017.53	3.4900	3.4899	-1.7108	6.76	0.76	-0.750			
0.3648	23344.51	3.4870	3.4870	-1.6943	6.78	0.78	-0.750			
0.3699	23672.72	3.4840	3.4840	-1.6822	6.79	0.79	-0.750			
0.3749	23994.72	3.4810	3.4809	-1.6595	6.80	0.80	-0.750			
0.3799	24310.59	3.4780	3.4779	-1.6430	6.81	0.81	-0.750			
0.3848	24626.19	3.4750	3.4751	-1.6298	6.82	0.82	-0.750			
0.3896	24935.03	3.4720	3.4719	-1.6096	6.84	0.84	-0.750			
0.3944	25242.92	3.4690	3.4690	-1.5867	6.85	0.85	-0.750			
0.3992	25549.81	3.4660	3.4660	-1.5777	6.87	0.87	-0.750			
0.4039	25849.43	3.4630	3.4630	-1.5570	6.88	0.88	-0.750			
0.4086	26148.41	3.4600	3.4599	-1.5313	6.90	0.90	-0.750			
0.4131	26439.03	3.4570	3.4571	-1.5001	6.91	0.91	-0.750			
0.4176	26725.66	3.4540	3.4539	-1.4730	6.92	0.92	-0.750			
0.4220	27005.54	3.4510	3.4511	-1.4483	6.93	0.93	-0.750			
0.4263	27281.05	3.4480	3.4480	-1.4208	6.94	0.94	-0.750			
0.4305	27551.70	3.4450	3.4450	-1.3934	6.96	0.96	-0.750			
0.4346	27815.29	3.4420	3.4420	-1.3658	6.98	0.98	-0.750			
0.4387	28074.04	3.4390	3.4391	-1.3380	6.99	0.99	-0.750			
0.4427	28330.24	3.4360	3.4360	-1.3127	7.01	1.01	-0.750			
0.4466	28579.97	3.4330	3.4329	-1.2787	7.02	1.02	-0.750			
0.4503	28820.70	3.4300	3.4301	-1.2482	7.03	1.03	-0.750			
0.4540	29058.78	3.4270	3.4270	-1.2221	7.05	1.05	-0.750			
0.4576	29289.49	3.4240	3.4240	-1.1998	7.07	1.07	-0.750			
0.4612	29516.41	3.4210	3.4209	-1.1771	7.08	1.08	-0.750			
0.4647	29740.27	3.4180	3.4179	-1.1593	7.13	1.13	-0.750			
0.4682	29963.57	3.4150	3.4150	-1.1336	7.19	1.19	-0.750			
0.4716	30181.38	3.4120	3.4119	-1.1088	7.25	1.25	-0.750			
0.4748	30389.48	3.4090	3.4091	-1.0803	7.29	1.29	-0.750			
0.4781	30596.70	3.4060	3.4060	-1.0503	7.32	1.32	-0.750			
0.4812	30793.62	3.4030	3.4029	-1.0173	7.35	1.35	-0.750			
0.4841	30985.01	3.4000	3.4000	-0.9842	7.38	1.38	-0.750			
0.4871	31172.86	3.3970	3.3970	-0.9593	7.39	1.39	-0.750			
0.4899	31353.96	3.3940	3.3940	-0.9296	7.41	1.41	-0.750			
0.4926	31528.50	3.3910	3.3910	-0.8992	7.42	1.42	-0.750			
0.4953	31697.23	3.3880	3.3880	-0.8700	7.44	1.44	-0.750			
0.4979	31863.67	3.3850	3.3850	-0.8441	7.46	1.46	-0.750			
0.5003	32022.39	3.3820	3.3821	-0.8184	7.47	1.47	-0.750			
0.5028	32176.64	3.3790	3.3790	-0.7863	7.49	1.49	-0.750			
