Ah_balance (normalized)	Ah_balance (mAh)	Voltage - fit (V)	Voltage -  interpolate (V)	dQ/dV (1/V)	Temperature (°C)	Temperature - diff (°C)	Current (C)	R_DC 0ms (mOhm)	R_DC 50ms (mOhm)	R_DC 50 ms PEC (mOhm)
0.0949	6072.54	4.0030	4.0025	-0.0890	5.99	0.00	-0.750			
0.0952	6092.69	4.0000	3.9999	-0.1192	5.99	-0.00	-0.750			
0.0956	6118.82	3.9970	3.9969	-0.1484	5.99	-0.00	-0.750			
0.0961	6150.33	3.9940	3.9940	-0.1761	5.99	-0.00	-0.750			
0.0967	6187.06	3.9910	3.9910	-0.2024	5.99	-0.00	-0.750			
0.0973	6229.36	3.9880	3.9880	-0.2290	5.99	-0.00	-0.750			
0.0981	6276.72	3.9850	3.9850	-0.2521	5.99	-0.00	-0.750			
0.0989	6326.99	3.9820	3.9820	-0.2750	5.98	-0.01	-0.750			
0.0997	6382.26	3.9790	3.9790	-0.2965	5.98	-0.01	-0.750			
0.1006	6441.09	3.9760	3.9761	-0.3188	5.98	-0.01	-0.750			
0.1016	6504.01	3.9730	3.9730	-0.3437	5.98	-0.01	-0.750			
0.1027	6571.38	3.9700	3.9700	-0.3706	5.98	-0.01	-0.750			
0.1038	6644.22	3.9670	3.9670	-0.4060	5.98	-0.01	-0.750			
0.1051	6726.69	3.9640	3.9639	-0.4343	5.97	-0.02	-0.750			
0.1065	6813.38	3.9610	3.9609	-0.4599	5.97	-0.02	-0.750			
0.1079	6906.21	3.9580	3.9583	-0.4873	5.97	-0.02	-0.750			
0.1094	7001.77	3.9550	3.9550	-0.5090	5.97	-0.02	-0.750			
0.1110	7101.18	3.9520	3.9519	-0.5322	5.97	-0.02	-0.750			
0.1126	7204.02	3.9490	3.9490	-0.5520	5.97	-0.02	-0.750			
0.1143	7312.73	3.9460	3.9460	-0.5751	5.97	-0.02	-0.750			
0.1160	7426.50	3.9430	3.9430	-0.5975	5.97	-0.02	-0.750			
0.1179	7544.18	3.9400	3.9400	-0.6147	5.97	-0.02	-0.750			
0.1197	7663.47	3.9370	3.9370	-0.6317	5.97	-0.02	-0.750			
0.1217	7786.18	3.9340	3.9340	-0.6468	5.97	-0.02	-0.750			
0.1236	7911.64	3.9310	3.9308	-0.6633	5.97	-0.02	-0.750			
0.1256	8041.50	3.9280	3.9280	-0.6766	5.97	-0.02	-0.750			
0.1277	8173.14	3.9250	3.9250	-0.6880	5.98	-0.01	-0.750			
0.1298	8307.97	3.9220	3.9220	-0.7003	5.98	-0.01	-0.750			
0.1319	8443.64	3.9190	3.9189	-0.7098	5.98	-0.01	-0.750			
0.1341	8579.82	3.9160	3.9160	-0.7147	5.98	-0.01	-0.750			
0.1362	8718.61	3.9130	3.9130	-0.7200	5.98	-0.01	-0.750			
0.1384	8856.90	3.9100	3.9100	-0.7321	5.98	-0.01	-0.750			
0.1406	8999.71	3.9070	3.9070	-0.7373	5.99	-0.00	-0.750			
0.1428	9141.61	3.9040	3.9039	-0.7458	5.99	-0.00	-0.750			
0.1451	9285.16	3.9010	3.9013	-0.7521	5.99	-0.00	-0.750			
0.1473	9428.68	3.8980	3.8979	-0.7620	6.00	0.01	-0.750			
0.1496	9575.20	3.8950	3.8950	-0.7866	6.00	0.01	-0.750			
0.1520	9728.69	3.8920	3.8920	-0.8058	6.01	0.02	-0.750			
0.1545	9888.29	3.8890	3.8888	-0.8149	6.02	0.03	-0.750			
0.1570	10048.12	3.8860	3.8863	-0.8181	6.03	0.04	-0.750			
0.1595	10207.34	3.8830	3.8830	-0.8140	6.03	0.04	-0.750			
0.1619	10363.83	3.8800	3.8799	-0.8049	6.04	0.05	-0.750			
0.1643	10513.79	3.8770	3.8770	-0.7901	6.04	0.05	-0.750			
0.1666	10662.55	3.8740	3.8740	-0.7816	6.04	0.05	-0.750			
0.1690	10817.46	3.8710	3.8709	-0.7677	6.05	0.06	-0.750			
0.1713	10964.32	3.8680	3.8680	-0.7549	6.05	0.06	-0.750			
0.1735	11104.64	3.8650	3.8652	-0.7529	6.06	0.07	-0.750			
0.1757	11246.65	3.8620	3.8620	-0.7523	6.06	0.07	-0.750			
0.1779	11387.45	3.8590	3.8588	-0.7552	6.07	0.08	-0.750			
0.1802	11532.16	3.8560	3.8559	-0.7682	6.07	0.08	-0.750			
0.1825	11682.32	3.8530	3.8533	-0.7833	6.08	0.09	-0.750			
0.1850	11837.41	3.8500	3.8501	-0.7997	6.09	0.10	-0.750			
0.1874	11993.73	3.8470	3.8469	-0.8052	6.09	0.10	-0.750			
0.1898	12148.87	3.8440	3.8440	-0.8034	6.10	0.11	-0.750			
0.1922	12302.28	3.8410	3.8411	-0.8063	6.10	0.11	-0.750			
0.1946	12455.18	3.8380	3.8381	-0.8159	6.11	0.12	-0.750			
0.1971	12613.88	3.8350	3.8349	-0.8131	6.12	0.13	-0.750			
0.1995	12770.76	3.8320	3.8318	-0.8162	6.12	0.13	-0.750			
0.2020	12928.79	3.8290	3.8291	-0.8168	6.13	0.14	-0.750			
0.2045	13085.91	3.8260	3.8261	-0.8146	6.14	0.15	-0.750			
0.2069	13243.21	3.8230	3.8230	-0.8171	6.15	0.16	-0.750			
0.2093	13397.85	3.8200	3.8200	-0.8164	6.15	0.16	-0.750			
0.2117	13550.99	3.8170	3.8169	-0.8146	6.16	0.17	-0.750			
0.2142	13711.83	3.8140	3.8139	-0.8235	6.16	0.17	-0.750			
0.2167	13870.43	3.8110	3.8110	-0.8201	6.16	0.17	-0.750			
0.2192	14030.71	3.8080	3.8080	-0.8223	6.17	0.18	-0.750			
0.2217	14187.69	3.8050	3.8050	-0.8192	6.18	0.19	-0.750			
0.2241	14341.92	3.8020	3.8019	-0.8190	6.19	0.20	-0.750			
0.2266	14500.26	3.7990	3.7989	-0.8184	6.20	0.21	-0.750			
0.2290	14656.51	3.7960	3.7960	-0.8214	6.21	0.22	-0.750			
0.2315	14817.46	3.7930	3.7930	-0.8244	6.22	0.23	-0.750			
0.2340	14975.27	3.7900	3.7899	-0.8243	6.22	0.23	-0.750			
0.2364	15132.11	3.7870	3.7870	-0.8283	6.23	0.24	-0.750			
0.2389	15290.09	3.7840	3.7838	-0.8267	6.24	0.25	-0.750			
0.2414	15448.17	3.7810	3.7810	-0.8284	6.24	0.25	-0.750			
0.2439	15610.89	3.7780	3.7780	-0.8376	6.25	0.26	-0.750			
0.2464	15771.91	3.7750	3.7751	-0.8379	6.25	0.26	-0.750			
0.2490	15933.48	3.7720	3.7719	-0.8449	6.26	0.27	-0.750			
0.2515	16094.23	3.7690	3.7690	-0.8431	6.27	0.28	-0.750			
0.2540	16256.63	3.7660	3.7660	-0.8431	6.28	0.29	-0.750			
0.2566	16419.57	3.7630	3.7629	-0.8426	6.29	0.30	-0.750			
0.2591	16581.78	3.7600	3.7601	-0.8428	6.29	0.30	-0.750			
0.2616	16743.38	3.7570	3.7570	-0.8425	6.30	0.31	-0.750			
0.2642	16905.69	3.7540	3.7538	-0.8388	6.31	0.32	-0.750			
0.2666	17064.90	3.7510	3.7511	-0.8327	6.32	0.33	-0.750			
0.2692	17226.74	3.7480	3.7480	-0.8385	6.33	0.34	-0.750			
0.2717	17387.87	3.7450	3.7449	-0.8373	6.33	0.34	-0.750			
0.2742	17547.55	3.7420	3.7419	-0.8430	6.34	0.35	-0.750			
0.2767	17707.40	3.7390	3.7390	-0.8421	6.35	0.36	-0.750			
0.2792	17869.77	3.7360	3.7360	-0.8425	6.36	0.37	-0.750			
0.2818	18034.88	3.7330	3.7329	-0.8510	6.37	0.38	-0.750			
0.2843	18197.68	3.7300	3.7300	-0.8515	6.38	0.39	-0.750			
0.2869	18360.81	3.7270	3.7269	-0.8544	6.39	0.40	-0.750			
0.2895	18525.26	3.7240	3.7240	-0.8562	6.40	0.41	-0.750			
0.2920	18688.45	3.7210	3.7210	-0.8527	6.41	0.42	-0.750			
0.2946	18855.47	3.7180	3.7180	-0.8634	6.42	0.43	-0.750			
0.2972	19019.99	3.7150	3.7149	-0.8688	6.42	0.43	-0.750			
0.2998	19185.15	3.7120	3.7120	-0.8718	6.43	0.44	-0.750			
0.3024	19353.17	3.7090	3.7090	-0.8766	6.44	0.45	-0.750			
0.3050	19521.53	3.7060	3.7059	-0.8828	6.44	0.45	-0.750			
0.3077	19694.66	3.7030	3.7034	-0.8897	6.45	0.46	-0.750			
0.3104	19865.75	3.7000	3.7000	-0.8948	6.45	0.46	-0.750			
0.3131	20037.94	3.6970	3.6970	-0.8913	6.45	0.46	-0.750			
0.3158	20208.70	3.6940	3.6939	-0.8931	6.46	0.47	-0.750			
0.3184	20377.52	3.6910	3.6911	-0.9022	6.46	0.47	-0.750			
0.3211	20550.94	3.6880	3.6879	-0.9142	6.46	0.47	-0.750			
0.3239	20728.54	3.6850	3.6850	-0.9251	6.47	0.48	-0.750			
0.3267	20909.18	3.6820	3.6820	-0.9341	6.48	0.49	-0.750			
0.3295	21090.13	3.6790	3.6790	-0.9431	6.48	0.49	-0.750			
0.3324	21273.28	3.6760	3.6763	-0.9558	6.49	0.50	-0.750			
0.3352	21453.93	3.6730	3.6729	-0.9739	6.49	0.50	-0.750			
0.3382	21642.30	3.6700	3.6699	-0.9857	6.50	0.51	-0.750			
0.3412	21833.64	3.6670	3.6669	-0.9970	6.50	0.51	-0.750			
0.3442	22031.22	3.6640	3.6639	-1.0204	6.51	0.52	-0.750			
0.3473	22226.24	3.6610	3.6609	-1.0290	6.51	0.52	-0.750			
0.3504	22424.64	3.6580	3.6579	-1.0383	6.52	0.53	-0.750			
0.3535	22621.34	3.6550	3.6550	-1.0436	6.52	0.53	-0.750			
0.3566	22821.39	3.6520	3.6519	-1.0509	6.53	0.54	-0.750			
0.3598	23029.34	3.6490	3.6490	-1.0761	6.53	0.54	-0.750			
0.3631	23237.01	3.6460	3.6459	-1.0839	6.53	0.54	-0.750			
0.3663	23445.40	3.6430	3.6430	-1.0992	6.53	0.54	-0.750			
0.3696	23656.27	3.6400	3.6402	-1.1051	6.53	0.54	-0.750			
0.3730	23872.36	3.6370	3.6369	-1.1281	6.53	0.54	-0.750			
0.3764	24090.08	3.6340	3.6341	-1.1473	6.53	0.54	-0.750			
0.3799	24310.79	3.6310	3.6310	-1.1656	6.53	0.54	-0.750			
0.3834	24536.21	3.6280	3.6281	-1.1818	6.53	0.54	-0.750			
0.3870	24767.85	3.6250	3.6250	-1.2023	6.54	0.55	-0.750			
0.3906	24999.38	3.6220	3.6220	-1.2167	6.54	0.55	-0.750			
0.3943	25235.66	3.6190	3.6189	-1.2378	6.55	0.56	-0.750			
0.3981	25475.47	3.6160	3.6159	-1.2507	6.55	0.56	-0.750			
0.4018	25717.48	3.6130	3.6130	-1.2545	6.55	0.56	-0.750			
0.4056	25957.22	3.6100	3.6100	-1.2719	6.55	0.56	-0.750			
0.4094	26204.01	3.6070	3.6071	-1.2928	6.55	0.56	-0.750			
0.4134	26454.81	3.6040	3.6039	-1.3099	6.55	0.56	-0.750			
0.4173	26705.70	3.6010	3.6008	-1.3336	6.55	0.56	-0.750	0.493	1.143	
0.4213	26964.98	3.5980	3.5981	-1.3470	6.55	0.56	-0.750			
0.4254	27227.69	3.5950	3.5949	-1.3657	6.55	0.56	-0.750			
0.4295	27490.53	3.5920	3.5919	-1.3945	6.55	0.56	-0.750			
0.4337	27754.22	3.5890	3.5892	-1.4043	6.55	0.56	-0.750			
0.4380	28032.09	3.5860	3.5859	-1.4273	6.55	0.56	-0.750			
0.4423	28307.07	3.5830	3.5829	-1.4420	6.55	0.56	-0.750			
0.4466	28582.23	3.5800	3.5799	-1.4526	6.55	0.56	-0.750			
0.4511	28868.42	3.5770	3.5771	-1.4760	6.55	0.56	-0.750			
0.4555	29152.80	3.5740	3.5738	-1.4880	6.55	0.56	-0.750			
0.4598	29424.38	3.5710	3.5710	-1.5315	6.55	0.56	-0.750			
0.4644	29722.12	3.5680	3.5682	-1.6184	6.55	0.56	-0.750			
0.4694	30043.18	3.5650	3.5648	-1.6645	6.55	0.56	-0.750			
0.4746	30373.91	3.5620	3.5617	-1.6865	6.56	0.57	-0.750			
0.4799	30713.79	3.5590	3.5593	-1.7066	6.57	0.58	-0.750			
0.4851	31045.62	3.5560	3.5559	-1.7069	6.57	0.58	-0.750			
0.4902	31372.72	3.5530	3.5528	-1.6703	6.57	0.58	-0.750			
0.4949	31674.97	3.5500	3.5501	-1.6277	6.57	0.58	-0.750			
0.4998	31989.23	3.5470	3.5469	-1.6319	6.57	0.58	-0.750			
0.5048	32308.75	3.5440	3.5441	-1.6525	6.57	0.58	-0.750			
0.5098	32625.17	3.5410	3.5409	-1.6616	6.57	0.58	-0.750			
0.5148	32946.89	3.5380	3.5380	-1.6940	6.58	0.59	-0.750			
0.5199	33272.19	3.5350	3.5353	-1.7100	6.58	0.59	-0.750			
0.5251	33604.56	3.5320	3.5320	-1.7256	6.58	0.59	-0.750			
0.5303	33940.41	3.5290	3.5290	-1.7425	6.59	0.60	-0.750			
0.5356	34278.14	3.5260	3.5261	-1.7504	6.59	0.60	-0.750			
0.5409	34614.84	3.5230	3.5229	-1.7588	6.59	0.60	-0.750			
0.5462	34955.47	3.5200	3.5200	-1.7679	6.59	0.60	-0.750			
0.5515	35294.07	3.5170	3.5168	-1.7728	6.60	0.61	-0.750			
0.5568	35636.32	3.5140	3.5142	-1.7770	6.60	0.61	-0.750			
0.5622	35979.58	3.5110	3.5109	-1.7649	6.60	0.61	-0.750			
0.5675	36317.76	3.5080	3.5081	-1.7540	6.61	0.62	-0.750			
0.5727	36655.00	3.5050	3.5050	-1.7537	6.61	0.62	-0.750			
0.5779	36987.02	3.5020	3.5020	-1.7523	6.62	0.63	-0.750			
0.5832	37324.32	3.4990	3.4990	-1.7454	6.62	0.63	-0.750			
0.5884	37660.26	3.4960	3.4961	-1.7334	6.62	0.63	-0.750			
0.5937	37995.25	3.4930	3.4931	-1.7241	6.63	0.64	-0.750			
0.5988	38325.37	3.4900	3.4899	-1.7156	6.64	0.65	-0.750			
0.6040	38653.42	3.4870	3.4868	-1.6959	6.64	0.65	-0.750			
0.6089	38971.74	3.4840	3.4841	-1.6827	6.65	0.66	-0.750			
0.6140	39293.31	3.4810	3.4809	-1.6719	6.66	0.67	-0.750			
0.6190	39615.92	3.4780	3.4779	-1.6584	6.67	0.68	-0.750			
0.6240	39934.16	3.4750	3.4750	-1.6366	6.68	0.69	-0.750			
0.6289	40247.81	3.4720	3.4719	-1.6175	6.68	0.69	-0.750			
0.6337	40559.33	3.4690	3.4690	-1.5863	6.69	0.70	-0.750			
0.6385	40861.94	3.4660	3.4657	-1.5522	6.70	0.71	-0.750			
0.6430	41153.92	3.4630	3.4631	-1.5368	6.71	0.72	-0.750			
0.6476	41446.81	3.4600	3.4600	-1.5162	6.72	0.73	-0.750			
0.6522	41741.30	3.4570	3.4568	-1.5051	6.73	0.74	-0.750			
0.6566	42025.16	3.4540	3.4542	-1.4783	6.75	0.76	-0.750			
0.6611	42312.34	3.4510	3.4509	-1.4555	6.76	0.77	-0.750			
0.6655	42592.53	3.4480	3.4479	-1.4236	6.78	0.79	-0.750			
0.6697	42861.18	3.4450	3.4452	-1.3928	6.79	0.80	-0.750			
0.6738	43123.18	3.4420	3.4419	-1.3568	6.80	0.81	-0.750			
0.6779	43382.47	3.4390	3.4389	-1.3239	6.80	0.81	-0.750			
0.6817	43631.56	3.4360	3.4361	-1.2921	6.81	0.82	-0.750			
0.6856	43875.21	3.4330	3.4330	-1.2555	6.82	0.83	-0.750			
0.6893	44116.97	3.4300	3.4300	-1.2363	6.83	0.84	-0.750			
0.6930	44349.40	3.4270	3.4270	-1.2059	6.84	0.85	-0.750			
0.6965	44574.66	3.4240	3.4240	-1.1818	6.85	0.86	-0.750			
0.7001	44803.59	3.4210	3.4210	-1.1627	6.87	0.88	-0.750			
0.7035	45025.81	3.4180	3.4180	-1.1332	6.88	0.89	-0.750			
0.7069	45242.13	3.4150	3.4151	-1.1024	6.89	0.90	-0.750			
0.7102	45452.20	3.4120	3.4119	-1.0715	6.90	0.91	-0.750			
0.7133	45651.02	3.4090	3.4089	-1.0329	6.92	0.93	-0.750			
0.7163	45846.11	3.4060	3.4060	-1.0020	6.93	0.94	-0.750			
0.7193	46033.24	3.4030	3.4029	-0.9691	6.95	0.96	-0.750			
0.7222	46218.09	3.4000	3.4000	-0.9523	6.96	0.97	-0.750			
0.7250	46398.63	3.3970	3.3970	-0.9267	6.97	0.98	-0.750			
0.7277	46574.41	3.3940	3.3939	-0.8994	6.99	1.00	-0.750			
0.7304	46744.43	3.3910	3.3909	-0.8675	7.00	1.01	-0.750			
0.7330	46909.70	3.3880	3.3882	-0.8421	7.01	1.02	-0.750			
0.7355	47069.66	3.3850	3.3849	-0.8119	7.02	1.03	-0.750			
0.7379	47222.81	3.3820	3.3820	-0.7742	7.04	1.05	-0.750			
0.7401	47368.77	3.3790	3.3790	-0.7516	7.05	1.06	-0.750			
