Ah_balance (normalized)	Ah_balance (mAh)	Voltage - fit (V)	Voltage -  interpolate (V)	dQ/dV (1/V)	Temperature (°C)	Temperature - diff (°C)	Current (C)	R_DC 0ms (mOhm)	R_DC 50ms (mOhm)	R_DC 50 ms PEC (mOhm)
0.0914	5851.42	4.0040	4.0031	-0.0588	6.00	0.01	-0.750			
0.0917	5865.94	4.0010	3.9999	-0.0885	6.00	0.01	-0.750			
0.0920	5886.11	3.9980	3.9977	-0.1163	6.00	0.01	-0.750			
0.0924	5911.04	3.9950	3.9951	-0.1434	6.00	0.01	-0.750			
0.0928	5941.25	3.9920	3.9920	-0.1700	5.99	0.00	-0.750			
0.0934	5976.68	3.9890	3.9890	-0.1946	5.99	0.00	-0.750			
0.0940	6018.51	3.9860	3.9859	-0.2176	5.99	0.00	-0.750			
0.0947	6062.13	3.9830	3.9830	-0.2391	5.99	0.00	-0.750			
0.0955	6110.14	3.9800	3.9800	-0.2635	5.99	0.00	-0.750			
0.0963	6162.72	3.9770	3.9771	-0.2862	5.99	-0.00	-0.750			
0.0972	6219.68	3.9740	3.9739	-0.3093	5.99	-0.00	-0.750			
0.0981	6280.89	3.9710	3.9711	-0.3334	5.99	-0.00	-0.750			
0.0992	6347.73	3.9680	3.9680	-0.3562	5.98	-0.01	-0.750			
0.1003	6418.63	3.9650	3.9651	-0.3814	5.98	-0.01	-0.750			
0.1015	6494.50	3.9620	3.9620	-0.4022	5.98	-0.01	-0.750			
0.1027	6573.85	3.9590	3.9590	-0.4225	5.98	-0.01	-0.750			
0.1040	6658.56	3.9560	3.9560	-0.4443	5.98	-0.01	-0.750			
0.1054	6745.46	3.9530	3.9530	-0.4645	5.97	-0.02	-0.750			
0.1068	6837.19	3.9500	3.9499	-0.4823	5.97	-0.02	-0.750			
0.1083	6932.25	3.9470	3.9474	-0.4983	5.97	-0.02	-0.750			
0.1098	7029.69	3.9440	3.9439	-0.5109	5.97	-0.02	-0.750			
0.1114	7129.51	3.9410	3.9411	-0.5262	5.97	-0.02	-0.750			
0.1130	7231.42	3.9380	3.9380	-0.5383	5.97	-0.02	-0.750			
0.1146	7336.28	3.9350	3.9349	-0.5605	5.97	-0.02	-0.750			
0.1163	7444.19	3.9320	3.9320	-0.5711	5.97	-0.02	-0.750			
0.1181	7556.60	3.9290	3.9289	-0.5868	5.97	-0.02	-0.750			
0.1199	7671.51	3.9260	3.9259	-0.5979	5.97	-0.02	-0.750			
0.1217	7790.02	3.9230	3.9230	-0.6063	5.97	-0.02	-0.750			
0.1235	7905.53	3.9200	3.9201	-0.6188	5.97	-0.02	-0.750			
0.1254	8024.44	3.9170	3.9170	-0.6286	5.98	-0.01	-0.750			
0.1273	8145.66	3.9140	3.9138	-0.6423	5.98	-0.01	-0.750			
0.1293	8274.07	3.9110	3.9111	-0.6508	5.98	-0.01	-0.750			
0.1313	8400.19	3.9080	3.9079	-0.6539	5.99	-0.00	-0.750			
0.1332	8527.83	3.9050	3.9055	-0.6578	5.99	-0.00	-0.750			
0.1352	8655.09	3.9020	3.9019	-0.6567	5.99	0.00	-0.750			
0.1371	8777.53	3.8990	3.8990	-0.6547	6.00	0.01	-0.750			
0.1391	8902.35	3.8960	3.8961	-0.6610	6.00	0.01	-0.750			
0.1411	9032.11	3.8930	3.8929	-0.6738	6.00	0.01	-0.750			
0.1432	9162.98	3.8900	3.8899	-0.6731	6.01	0.02	-0.750			
0.1452	9293.43	3.8870	3.8871	-0.6732	6.01	0.02	-0.750			
0.1472	9421.32	3.8840	3.8839	-0.6782	6.01	0.02	-0.750			
0.1492	9551.38	3.8810	3.8810	-0.6809	6.02	0.03	-0.750			
0.1513	9680.09	3.8780	3.8779	-0.6914	6.02	0.03	-0.750			
0.1533	9812.63	3.8750	3.8750	-0.6953	6.02	0.03	-0.750			
0.1555	9951.90	3.8720	3.8720	-0.6995	6.03	0.04	-0.750			
0.1576	10087.71	3.8690	3.8692	-0.7018	6.03	0.04	-0.750			
0.1597	10223.15	3.8660	3.8661	-0.7020	6.03	0.04	-0.750			
0.1618	10355.69	3.8630	3.8628	-0.6965	6.04	0.05	-0.750			
0.1639	10487.17	3.8600	3.8600	-0.6949	6.05	0.06	-0.750			
0.1659	10619.20	3.8570	3.8571	-0.6975	6.05	0.06	-0.750			
0.1681	10758.23	3.8540	3.8539	-0.7029	6.06	0.07	-0.750			
0.1702	10893.44	3.8510	3.8508	-0.7033	6.07	0.08	-0.750			
0.1723	11026.60	3.8480	3.8480	-0.7031	6.07	0.08	-0.750			
0.1744	11161.68	3.8450	3.8450	-0.7051	6.08	0.09	-0.750			
0.1765	11296.27	3.8420	3.8419	-0.7123	6.08	0.09	-0.750			
0.1787	11435.99	3.8390	3.8390	-0.7102	6.08	0.09	-0.750			
0.1808	11574.33	3.8360	3.8359	-0.7106	6.09	0.10	-0.750			
0.1830	11711.35	3.8330	3.8333	-0.7103	6.09	0.10	-0.750			
0.1851	11845.89	3.8300	3.8300	-0.7085	6.10	0.11	-0.750			
0.1872	11981.44	3.8270	3.8268	-0.7045	6.11	0.12	-0.750			
0.1893	12114.86	3.8240	3.8240	-0.7075	6.11	0.12	-0.750			
0.1915	12254.12	3.8210	3.8210	-0.7126	6.12	0.13	-0.750			
0.1936	12392.03	3.8180	3.8179	-0.7103	6.13	0.14	-0.750			
0.1957	12527.91	3.8150	3.8154	-0.7115	6.14	0.15	-0.750			
0.1978	12662.11	3.8120	3.8120	-0.7107	6.15	0.16	-0.750			
0.2000	12797.46	3.8090	3.8089	-0.7175	6.16	0.17	-0.750			
0.2021	12935.28	3.8060	3.8060	-0.7189	6.17	0.18	-0.750			
0.2043	13074.89	3.8030	3.8029	-0.7251	6.17	0.18	-0.750			
0.2065	13214.88	3.8000	3.8000	-0.7264	6.18	0.19	-0.750			
0.2087	13355.82	3.7970	3.7971	-0.7240	6.19	0.20	-0.750			
0.2108	13493.11	3.7940	3.7939	-0.7201	6.20	0.21	-0.750			
0.2129	13627.59	3.7910	3.7912	-0.7259	6.20	0.21	-0.750			
0.2151	13769.23	3.7880	3.7878	-0.7267	6.21	0.22	-0.750			
0.2173	13910.39	3.7850	3.7850	-0.7330	6.22	0.23	-0.750			
0.2195	14050.50	3.7820	3.7818	-0.7356	6.23	0.24	-0.750			
0.2218	14192.94	3.7790	3.7788	-0.7406	6.23	0.24	-0.750			
0.2240	14336.84	3.7760	3.7759	-0.7405	6.24	0.25	-0.750			
0.2262	14477.24	3.7730	3.7729	-0.7391	6.25	0.26	-0.750			
0.2284	14617.18	3.7700	3.7701	-0.7354	6.25	0.26	-0.750			
0.2307	14763.14	3.7670	3.7670	-0.7442	6.26	0.27	-0.750			
0.2329	14903.73	3.7640	3.7641	-0.7479	6.27	0.28	-0.750			
0.2351	15046.89	3.7610	3.7609	-0.7533	6.28	0.29	-0.750			
0.2374	15190.52	3.7580	3.7580	-0.7620	6.28	0.29	-0.750			
0.2397	15339.90	3.7550	3.7549	-0.7596	6.29	0.30	-0.750			
0.2420	15485.92	3.7520	3.7520	-0.7615	6.30	0.31	-0.750			
0.2443	15633.36	3.7490	3.7491	-0.7706	6.31	0.32	-0.750			
0.2466	15779.39	3.7460	3.7459	-0.7821	6.31	0.32	-0.750			
0.2488	15925.05	3.7430	3.7429	-0.7995	6.32	0.33	-0.750			
0.2513	16085.44	3.7400	3.7400	-0.8112	6.33	0.34	-0.750			
0.2538	16245.01	3.7370	3.7369	-0.8222	6.34	0.35	-0.750			
0.2564	16407.88	3.7340	3.7340	-0.8248	6.34	0.35	-0.750			
0.2588	16566.29	3.7310	3.7312	-0.8236	6.35	0.36	-0.750			
0.2613	16723.82	3.7280	3.7279	-0.8117	6.36	0.37	-0.750			
0.2636	16873.45	3.7250	3.7249	-0.8106	6.37	0.38	-0.750			
0.2661	17027.60	3.7220	3.7221	-0.8135	6.37	0.38	-0.750			
0.2686	17189.28	3.7190	3.7189	-0.8285	6.38	0.39	-0.750			
0.2711	17350.29	3.7160	3.7160	-0.8324	6.39	0.40	-0.750			
0.2736	17509.23	3.7130	3.7131	-0.8428	6.40	0.41	-0.750			
0.2761	17670.48	3.7100	3.7100	-0.8421	6.40	0.41	-0.750			
0.2787	17833.96	3.7070	3.7069	-0.8495	6.41	0.42	-0.750			
0.2812	17995.25	3.7040	3.7039	-0.8483	6.41	0.42	-0.750			
0.2837	18158.82	3.7010	3.7013	-0.8569	6.42	0.43	-0.750			
0.2863	18323.96	3.6980	3.6980	-0.8739	6.43	0.44	-0.750			
0.2888	18483.71	3.6950	3.6951	-0.9097	6.43	0.44	-0.750			
0.2915	18653.92	3.6920	3.6920	-0.9527	6.44	0.45	-0.750			
0.2945	18847.52	3.6890	3.6885	-1.0070	6.45	0.46	-0.750			
0.2977	19052.44	3.6860	3.6856	-1.0257	6.46	0.47	-0.750			
0.3009	19260.57	3.6830	3.6836	-1.0214	6.47	0.48	-0.750			
0.3041	19461.22	3.6800	3.6802	-0.9995	6.48	0.49	-0.750			
0.3071	19654.65	3.6770	3.6768	-0.9848	6.49	0.50	-0.750			
0.3097	19822.06	3.6740	3.6739	-0.9233	6.49	0.50	-0.750			
0.3125	19999.88	3.6710	3.6710	-0.9353	6.50	0.51	-0.750			
0.3153	20180.51	3.6680	3.6680	-0.9420	6.50	0.51	-0.750			
0.3182	20363.73	3.6650	3.6649	-0.9496	6.51	0.52	-0.750			
0.3211	20547.56	3.6620	3.6622	-0.9564	6.51	0.52	-0.750			
0.3239	20730.76	3.6590	3.6590	-0.9627	6.52	0.53	-0.750			
0.3268	20916.37	3.6560	3.6560	-0.9658	6.53	0.54	-0.750			
0.3297	21101.09	3.6530	3.6529	-0.9699	6.54	0.55	-0.750			
0.3326	21288.88	3.6500	3.6501	-0.9820	6.55	0.56	-0.750			
0.3356	21477.10	3.6470	3.6470	-0.9891	6.56	0.57	-0.750			
0.3386	21667.45	3.6440	3.6439	-0.9971	6.56	0.57	-0.750			
0.3416	21859.30	3.6410	3.6410	-1.0039	6.57	0.58	-0.750			
0.3446	22052.07	3.6380	3.6379	-1.0092	6.58	0.59	-0.750			
0.3476	22248.71	3.6350	3.6349	-1.0253	6.58	0.59	-0.750			
0.3507	22446.02	3.6320	3.6320	-1.0306	6.58	0.59	-0.750			
0.3538	22643.95	3.6290	3.6290	-1.0365	6.59	0.60	-0.750			
0.3569	22842.97	3.6260	3.6260	-1.0434	6.59	0.60	-0.750			
0.3601	23045.25	3.6230	3.6230	-1.0594	6.59	0.60	-0.750			
0.3633	23250.63	3.6200	3.6199	-1.0646	6.60	0.61	-0.750			
0.3665	23455.37	3.6170	3.6170	-1.0734	6.60	0.61	-0.750			
0.3697	23661.97	3.6140	3.6141	-1.0786	6.61	0.62	-0.750			
0.3730	23871.58	3.6110	3.6110	-1.0913	6.61	0.62	-0.750			
0.3763	24082.47	3.6080	3.6079	-1.0963	6.62	0.63	-0.750			
0.3796	24291.43	3.6050	3.6050	-1.1010	6.62	0.63	-0.750			
0.3829	24502.94	3.6020	3.6022	-1.1087	6.63	0.64	-0.750			
0.3862	24718.84	3.5990	3.5989	-1.1290	6.64	0.65	-0.750			
0.3896	24934.07	3.5960	3.5959	-1.1395	6.65	0.66	-0.750			
0.3931	25155.93	3.5930	3.5930	-1.1447	6.66	0.67	-0.750			
0.3965	25376.17	3.5900	3.5901	-1.1552	6.67	0.68	-0.750			
0.4000	25601.76	3.5870	3.5869	-1.1700	6.67	0.68	-0.750	0.450	1.010	
0.4035	25826.67	3.5840	3.5838	-1.1773	6.68	0.69	-0.750			
0.4071	26051.70	3.5810	3.5810	-1.1851	6.68	0.69	-0.750			
0.4106	26280.75	3.5780	3.5779	-1.1948	6.68	0.69	-0.750			
0.4142	26509.95	3.5750	3.5750	-1.2024	6.68	0.69	-0.750			
0.4179	26744.45	3.5720	3.5720	-1.2171	6.69	0.70	-0.750			
0.4215	26975.81	3.5690	3.5691	-1.2291	6.69	0.70	-0.750			
0.4252	27214.51	3.5660	3.5660	-1.2423	6.70	0.71	-0.750			
0.4290	27454.39	3.5630	3.5630	-1.2582	6.72	0.73	-0.750			
0.4328	27697.92	3.5600	3.5600	-1.2701	6.73	0.74	-0.750			
0.4366	27944.40	3.5570	3.5569	-1.2845	6.73	0.74	-0.750			
0.4405	28191.58	3.5540	3.5540	-1.2926	6.74	0.75	-0.750			
0.4444	28438.70	3.5510	3.5510	-1.3065	6.74	0.75	-0.750			
0.4483	28691.97	3.5480	3.5480	-1.3194	6.75	0.76	-0.750			
0.4523	28946.75	3.5450	3.5449	-1.3274	6.76	0.77	-0.750			
0.4563	29200.32	3.5420	3.5420	-1.3451	6.77	0.78	-0.750			
0.4603	29461.02	3.5390	3.5390	-1.3548	6.77	0.78	-0.750			
0.4645	29725.08	3.5360	3.5359	-1.3609	6.78	0.79	-0.750			
0.4685	29985.66	3.5330	3.5329	-1.3737	6.79	0.80	-0.750			
0.4726	30249.12	3.5300	3.5300	-1.3750	6.79	0.80	-0.750			
0.4768	30516.05	3.5270	3.5269	-1.3841	6.80	0.81	-0.750			
0.4809	30780.34	3.5240	3.5239	-1.3925	6.81	0.82	-0.750			
0.4851	31046.26	3.5210	3.5210	-1.3931	6.81	0.82	-0.750			
0.4893	31318.08	3.5180	3.5180	-1.4072	6.82	0.83	-0.750			
0.4936	31587.97	3.5150	3.5148	-1.4251	6.83	0.84	-0.750			
0.4978	31861.00	3.5120	3.5120	-1.4260	6.84	0.85	-0.750			
0.5022	32139.48	3.5090	3.5089	-1.4380	6.86	0.87	-0.750			
0.5065	32416.85	3.5060	3.5060	-1.4451	6.87	0.88	-0.750			
0.5108	32692.67	3.5030	3.5030	-1.4435	6.88	0.89	-0.750			
0.5152	32975.39	3.5000	3.4999	-1.4438	6.89	0.90	-0.750			
0.5195	33249.93	3.4970	3.4970	-1.4500	6.90	0.91	-0.750			
0.5238	33525.92	3.4940	3.4940	-1.4519	6.91	0.92	-0.750			
0.5283	33808.22	3.4910	3.4909	-1.4592	6.93	0.94	-0.750			
0.5326	34088.24	3.4880	3.4880	-1.4699	6.95	0.96	-0.750			
0.5371	34371.60	3.4850	3.4850	-1.4700	6.96	0.97	-0.750			
0.5415	34656.81	3.4820	3.4820	-1.4779	6.98	0.99	-0.750			
0.5460	34942.51	3.4790	3.4792	-1.4812	6.99	1.00	-0.750			
0.5504	35224.16	3.4760	3.4759	-1.4693	7.00	1.01	-0.750			
0.5548	35508.41	3.4730	3.4730	-1.4691	7.00	1.01	-0.750			
0.5592	35790.04	3.4700	3.4701	-1.4668	7.01	1.02	-0.750			
0.5636	36072.53	3.4670	3.4670	-1.4646	7.03	1.04	-0.750			
0.5680	36352.17	3.4640	3.4640	-1.4606	7.04	1.05	-0.750			
0.5724	36630.62	3.4610	3.4610	-1.4514	7.06	1.07	-0.750			
0.5767	36911.04	3.4580	3.4580	-1.4439	7.08	1.09	-0.750			
0.5811	37191.88	3.4550	3.4549	-1.4058	7.10	1.11	-0.750			
0.5854	37463.89	3.4520	3.4520	-1.3652	7.12	1.13	-0.750			
0.5894	37718.79	3.4490	3.4492	-1.3380	7.13	1.14	-0.750			
0.5932	37967.75	3.4460	3.4460	-1.3122	7.14	1.15	-0.750			
0.5971	38211.32	3.4430	3.4428	-1.2959	7.15	1.16	-0.750			
0.6009	38457.80	3.4400	3.4400	-1.3032	7.17	1.18	-0.750			
0.6048	38707.83	3.4370	3.4371	-1.3130	7.18	1.19	-0.750			
0.6088	38966.32	3.4340	3.4341	-1.3282	7.19	1.20	-0.750			
0.6129	39228.40	3.4310	3.4308	-1.3224	7.21	1.22	-0.750			
0.6169	39480.35	3.4280	3.4281	-1.3012	7.22	1.23	-0.750			
0.6208	39731.78	3.4250	3.4253	-1.2795	7.23	1.24	-0.750			
0.6246	39977.41	3.4220	3.4219	-1.2604	7.24	1.25	-0.750			
0.6283	40214.06	3.4190	3.4189	-1.2302	7.25	1.26	-0.750			
0.6319	40444.69	3.4160	3.4160	-1.1977	7.27	1.28	-0.750			
0.6355	40674.08	3.4130	3.4129	-1.1847	7.28	1.29	-0.750			
0.6390	40898.96	3.4100	3.4100	-1.1578	7.30	1.31	-0.750			
0.6425	41118.73	3.4070	3.4070	-1.1317	7.31	1.32	-0.750			
0.6458	41332.52	3.4040	3.4043	-1.1131	7.33	1.34	-0.750			
0.6491	41544.74	3.4010	3.4009	-1.0867	7.35	1.36	-0.750			
0.6524	41753.30	3.3980	3.3980	-1.0592	7.36	1.37	-0.750			
0.6555	41954.25	3.3950	3.3950	-1.0313	7.38	1.39	-0.750			
0.6586	42150.51	3.3920	3.3921	-1.0084	7.39	1.40	-0.750			
0.6616	42340.54	3.3890	3.3890	-0.9816	7.41	1.42	-0.750			
0.6645	42525.05	3.3860	3.3859	-0.9497	7.42	1.43	-0.750			
0.6672	42703.12	3.3830	3.3830	-0.9230	7.43	1.44	-0.750			
0.6700	42879.17	3.3800	3.3800	-0.9036	7.45	1.46	-0.750			
0.6727	43050.58	3.3770	3.3770	-0.8781	7.46	1.47	-0.750			
0.6752	43215.97	3.3740	3.3739	-0.8562	7.46	1.47	-0.750			
0.6778	43378.31	3.3710	3.3711	-0.8325	7.47	1.48	-0.750			
0.6802	43535.63	3.3680	3.3680	-0.8110	7.48	1.49	-0.750			
0.6827	43690.94	3.3650	3.3650	-0.7936	7.49	1.50	-0.750			
0.6850	43840.75	3.3620	3.3619	-0.7692	7.50	1.51	-0.750			
0.6873	43986.15	3.3590	3.3590	-0.7458	7.52	1.53	-0.750			
0.6895	44126.36	3.3560	3.3560	-0.7308	7.53	1.54	-0.750			
0.6916	44263.94	3.3530	3.3530	-0.7096	7.54	1.55	-0.750			
0.6938	44400.22	3.3500	3.3499	-0.6960	7.56	1.57	-0.750			
0.6958	44531.86	3.3470	3.3472	-0.6759	7.57	1.58	-0.750			
0.6978	44660.36	3.3440	3.3440	-0.6584	7.58	1.59	-0.750			
0.6998	44784.54	3.3410	3.3410	-0.6438	7.60	1.61	-0.750			
0.7016	44905.38	3.3380	3.3380	-0.6272	7.61	1.62	-0.750			
0.7035	45024.27	3.3350	3.3350	-0.6136	7.62	1.63	-0.750			
0.7053	45141.62	3.3320	3.3319	-0.5984	7.63	1.64	-0.750			
0.7071	45254.71	3.3290	3.3291	-0.5846	7.64	1.65	-0.750			
0.7088	45365.63	3.3260	3.3262	-0.5729	7.65	1.66	-0.750			
0.7105	45474.15	3.3230	3.3230	-0.5594	7.66	1.67	-0.750			
0.7122	45579.51	3.3200	3.3199	-0.5468	7.68	1.69	-0.750			
0.7138	45682.44	3.3170	3.3171	-0.5430	7.69	1.70	-0.750			
0.7154	45786.60	3.3140	3.3140	-0.5450	7.70	1.71	-0.750			
