Ah_balance (normalized)	Ah_balance (mAh)	Voltage - fit (V)	Voltage -  interpolate (V)	dQ/dV (1/V)	Temperature (°C)	Temperature - diff (°C)	Current (C)	R_DC 0ms (mOhm)	R_DC 50ms (mOhm)	R_DC 50 ms PEC (mOhm)
0.0980	6268.81	4.0100	4.0093	-0.0563	6.01	0.02	-0.750			
0.0982	6282.50	4.0070	4.0066	-0.0860	6.01	0.02	-0.750			
0.0985	6302.31	4.0040	4.0038	-0.1155	6.00	0.01	-0.750			
0.0989	6327.18	4.0010	4.0010	-0.1435	6.00	0.01	-0.750			
0.0993	6358.06	3.9980	3.9979	-0.1681	6.00	0.01	-0.750			
0.0999	6392.96	3.9950	3.9951	-0.1922	6.00	0.01	-0.750			
0.1005	6433.18	3.9920	3.9921	-0.2179	6.00	0.01	-0.750			
0.1012	6477.20	3.9890	3.9891	-0.2397	6.00	0.01	-0.750			
0.1020	6525.55	3.9860	3.9860	-0.2615	6.00	0.01	-0.750			
0.1028	6577.49	3.9830	3.9830	-0.2841	5.99	0.00	-0.750			
0.1037	6634.15	3.9800	3.9800	-0.3071	5.99	0.00	-0.750			
0.1046	6695.48	3.9770	3.9770	-0.3319	5.99	0.00	-0.750			
0.1056	6761.60	3.9740	3.9740	-0.3537	5.99	-0.00	-0.750			
0.1067	6831.88	3.9710	3.9711	-0.3763	5.99	-0.00	-0.750			
0.1079	6906.78	3.9680	3.9680	-0.3991	5.98	-0.01	-0.750			
0.1091	6985.10	3.9650	3.9650	-0.4224	5.98	-0.01	-0.750			
0.1104	7068.02	3.9620	3.9620	-0.4441	5.98	-0.01	-0.750			
0.1118	7155.10	3.9590	3.9591	-0.4693	5.97	-0.02	-0.750			
0.1133	7248.06	3.9560	3.9560	-0.4896	5.97	-0.02	-0.750			
0.1148	7344.82	3.9530	3.9530	-0.5112	5.97	-0.02	-0.750			
0.1163	7445.60	3.9500	3.9500	-0.5293	5.96	-0.03	-0.750			
0.1180	7549.00	3.9470	3.9471	-0.5468	5.96	-0.03	-0.750			
0.1196	7655.61	3.9440	3.9440	-0.5617	5.96	-0.03	-0.750			
0.1213	7765.12	3.9410	3.9409	-0.5787	5.96	-0.03	-0.750			
0.1231	7875.97	3.9380	3.9381	-0.5976	5.96	-0.03	-0.750			
0.1249	7994.72	3.9350	3.9349	-0.6110	5.95	-0.04	-0.750			
0.1268	8114.42	3.9320	3.9320	-0.6248	5.95	-0.04	-0.750			
0.1287	8236.26	3.9290	3.9290	-0.6362	5.95	-0.04	-0.750			
0.1306	8359.63	3.9260	3.9258	-0.6450	5.95	-0.04	-0.750			
0.1326	8483.91	3.9230	3.9230	-0.6540	5.95	-0.04	-0.750			
0.1345	8608.81	3.9200	3.9201	-0.6602	5.96	-0.03	-0.750			
0.1365	8735.58	3.9170	3.9170	-0.6709	5.96	-0.03	-0.750			
0.1386	8868.05	3.9140	3.9138	-0.6811	5.96	-0.03	-0.750			
0.1406	8998.57	3.9110	3.9111	-0.6887	5.97	-0.02	-0.750			
0.1427	9131.79	3.9080	3.9080	-0.6963	5.97	-0.02	-0.750			
0.1448	9267.19	3.9050	3.9050	-0.7044	5.97	-0.02	-0.750			
0.1469	9402.92	3.9020	3.9019	-0.7094	5.98	-0.01	-0.750			
0.1491	9539.80	3.8990	3.8990	-0.7132	5.98	-0.01	-0.750			
0.1512	9677.01	3.8960	3.8960	-0.7164	5.98	-0.01	-0.750			
0.1534	9815.58	3.8930	3.8929	-0.7214	5.99	-0.00	-0.750			
0.1555	9954.06	3.8900	3.8901	-0.7238	5.99	0.00	-0.750			
0.1577	10093.57	3.8870	3.8869	-0.7274	5.99	0.00	-0.750			
0.1599	10233.17	3.8840	3.8840	-0.7340	5.99	0.00	-0.750			
0.1621	10375.37	3.8810	3.8809	-0.7337	6.00	0.01	-0.750			
0.1643	10516.57	3.8780	3.8779	-0.7385	6.00	0.01	-0.750			
0.1666	10659.21	3.8750	3.8750	-0.7411	6.00	0.01	-0.750			
0.1688	10801.17	3.8720	3.8719	-0.7451	6.00	0.01	-0.750			
0.1710	10944.77	3.8690	3.8689	-0.7473	6.01	0.02	-0.750			
0.1733	11088.72	3.8660	3.8660	-0.7474	6.01	0.02	-0.750			
0.1755	11231.26	3.8630	3.8631	-0.7452	6.02	0.03	-0.750			
0.1778	11377.06	3.8600	3.8600	-0.7522	6.03	0.04	-0.750			
0.1800	11520.21	3.8570	3.8569	-0.7504	6.03	0.04	-0.750			
0.1823	11664.47	3.8540	3.8539	-0.7477	6.04	0.05	-0.750			
0.1845	11806.75	3.8510	3.8511	-0.7520	6.05	0.06	-0.750			
0.1868	11952.78	3.8480	3.8481	-0.7551	6.06	0.07	-0.750			
0.1890	12097.83	3.8450	3.8450	-0.7571	6.07	0.08	-0.750			
0.1913	12243.56	3.8420	3.8419	-0.7599	6.08	0.09	-0.750			
0.1936	12388.78	3.8390	3.8390	-0.7590	6.08	0.09	-0.750			
0.1959	12535.31	3.8360	3.8360	-0.7606	6.09	0.10	-0.750			
0.1982	12682.98	3.8330	3.8330	-0.7609	6.09	0.10	-0.750			
0.2004	12826.18	3.8300	3.8301	-0.7590	6.10	0.11	-0.750			
0.2027	12973.64	3.8270	3.8270	-0.7618	6.11	0.12	-0.750			
0.2050	13119.55	3.8240	3.8240	-0.7604	6.11	0.12	-0.750			
0.2073	13264.48	3.8210	3.8209	-0.7628	6.12	0.13	-0.750			
0.2096	13411.94	3.8180	3.8181	-0.7658	6.13	0.14	-0.750			
0.2119	13559.68	3.8150	3.8150	-0.7661	6.13	0.14	-0.750			
0.2142	13707.00	3.8120	3.8119	-0.7694	6.14	0.15	-0.750			
0.2165	13853.91	3.8090	3.8092	-0.7706	6.15	0.16	-0.750			
0.2188	14002.04	3.8060	3.8060	-0.7737	6.15	0.16	-0.750			
0.2211	14150.13	3.8030	3.8029	-0.7732	6.16	0.17	-0.750			
0.2234	14298.38	3.8000	3.8001	-0.7737	6.16	0.17	-0.750			
0.2258	14448.37	3.7970	3.7970	-0.7762	6.16	0.17	-0.750			
0.2281	14598.78	3.7940	3.7938	-0.7762	6.17	0.18	-0.750			
0.2304	14746.48	3.7910	3.7911	-0.7748	6.17	0.18	-0.750			
0.2327	14894.17	3.7880	3.7881	-0.7763	6.18	0.19	-0.750			
0.2351	15044.41	3.7850	3.7849	-0.7777	6.19	0.20	-0.750			
0.2374	15193.21	3.7820	3.7820	-0.7732	6.19	0.20	-0.750			
0.2397	15342.32	3.7790	3.7791	-0.7761	6.20	0.21	-0.750			
0.2421	15492.17	3.7760	3.7761	-0.7793	6.21	0.22	-0.750			
0.2444	15642.17	3.7730	3.7729	-0.7765	6.22	0.23	-0.750			
0.2467	15788.51	3.7700	3.7700	-0.7750	6.22	0.23	-0.750			
0.2490	15937.84	3.7670	3.7670	-0.7773	6.23	0.24	-0.750			
0.2514	16089.22	3.7640	3.7640	-0.7820	6.24	0.25	-0.750			
0.2537	16239.37	3.7610	3.7609	-0.7818	6.25	0.26	-0.750			
0.2561	16388.68	3.7580	3.7580	-0.7829	6.25	0.26	-0.750			
0.2584	16538.46	3.7550	3.7550	-0.7884	6.26	0.27	-0.750			
0.2608	16690.70	3.7520	3.7519	-0.7903	6.26	0.27	-0.750			
0.2632	16841.61	3.7490	3.7490	-0.7913	6.26	0.27	-0.750			
0.2655	16995.16	3.7460	3.7460	-0.7961	6.27	0.28	-0.750			
0.2679	17148.17	3.7430	3.7432	-0.7975	6.27	0.28	-0.750			
0.2703	17299.89	3.7400	3.7400	-0.8062	6.28	0.29	-0.750			
0.2727	17455.93	3.7370	3.7369	-0.8081	6.28	0.29	-0.750			
0.2752	17611.12	3.7340	3.7340	-0.8095	6.29	0.30	-0.750			
0.2776	17768.77	3.7310	3.7309	-0.8133	6.30	0.31	-0.750			
0.2801	17925.71	3.7280	3.7282	-0.8153	6.30	0.31	-0.750			
0.2825	18081.69	3.7250	3.7250	-0.8204	6.31	0.32	-0.750			
0.2850	18238.34	3.7220	3.7220	-0.8270	6.32	0.33	-0.750			
0.2875	18397.38	3.7190	3.7190	-0.8295	6.32	0.33	-0.750			
0.2900	18558.54	3.7160	3.7160	-0.8415	6.33	0.34	-0.750			
0.2925	18719.64	3.7130	3.7132	-0.8464	6.34	0.35	-0.750			
0.2950	18882.97	3.7100	3.7099	-0.8573	6.35	0.36	-0.750			
0.2976	19048.08	3.7070	3.7070	-0.8622	6.35	0.36	-0.750			
0.3002	19212.99	3.7040	3.7039	-0.8649	6.36	0.37	-0.750			
0.3028	19382.22	3.7010	3.7011	-0.8783	6.37	0.38	-0.750			
0.3055	19551.05	3.6980	3.6981	-0.8854	6.37	0.38	-0.750			
0.3081	19720.46	3.6950	3.6950	-0.8962	6.38	0.39	-0.750			
0.3108	19893.72	3.6920	3.6920	-0.9073	6.38	0.39	-0.750			
0.3136	20069.57	3.6890	3.6889	-0.9087	6.38	0.39	-0.750			
0.3163	20245.80	3.6860	3.6861	-0.9179	6.39	0.40	-0.750			
0.3191	20421.99	3.6830	3.6830	-0.9299	6.39	0.40	-0.750			
0.3219	20600.04	3.6800	3.6800	-0.9367	6.40	0.41	-0.750			
0.3247	20779.62	3.6770	3.6768	-0.9433	6.41	0.42	-0.750			
0.3275	20961.62	3.6740	3.6740	-0.9529	6.41	0.42	-0.750			
0.3304	21147.94	3.6710	3.6711	-0.9680	6.42	0.43	-0.750			
0.3334	21336.17	3.6680	3.6681	-0.9824	6.43	0.44	-0.750			
0.3363	21525.35	3.6650	3.6649	-0.9890	6.44	0.45	-0.750			
0.3393	21715.62	3.6620	3.6620	-0.9974	6.44	0.45	-0.750			
0.3423	21906.45	3.6590	3.6591	-1.0126	6.45	0.46	-0.750			
0.3453	22102.36	3.6560	3.6560	-1.0245	6.45	0.46	-0.750			
0.3485	22301.80	3.6530	3.6529	-1.0316	6.45	0.46	-0.750			
0.3515	22499.09	3.6500	3.6499	-1.0435	6.45	0.46	-0.750			
0.3547	22701.16	3.6470	3.6475	-1.0543	6.45	0.46	-0.750			
0.3579	22904.66	3.6440	3.6439	-1.0637	6.46	0.47	-0.750			
0.3611	23110.03	3.6410	3.6410	-1.0727	6.46	0.47	-0.750			
0.3643	23315.89	3.6380	3.6380	-1.0834	6.47	0.48	-0.750			
0.3675	23522.98	3.6350	3.6351	-1.1081	6.47	0.48	-0.750			
0.3709	23740.28	3.6320	3.6319	-1.1163	6.48	0.49	-0.750			
0.3743	23955.44	3.6290	3.6289	-1.1219	6.48	0.49	-0.750			
0.3777	24172.79	3.6260	3.6260	-1.1346	6.49	0.50	-0.750			
0.3811	24392.32	3.6230	3.6230	-1.1491	6.49	0.50	-0.750			
0.3846	24613.62	3.6200	3.6199	-1.1578	6.50	0.51	-0.750			
0.3880	24834.59	3.6170	3.6169	-1.1653	6.50	0.51	-0.750			
0.3915	25058.47	3.6140	3.6142	-1.1775	6.51	0.52	-0.750			
0.3952	25290.81	3.6110	3.6109	-1.2050	6.51	0.52	-0.750			
0.3988	25524.44	3.6080	3.6080	-1.2152	6.52	0.53	-0.750			
0.4024	25756.38	3.6050	3.6049	-1.2358	6.53	0.54	-0.750			
0.4062	25995.25	3.6020	3.6020	-1.2443	6.53	0.54	-0.750			
0.4100	26239.03	3.5990	3.5989	-1.2551	6.54	0.55	-0.750			
0.4138	26480.01	3.5960	3.5962	-1.2660	6.54	0.55	-0.750	0.462	1.083	
0.4175	26721.61	3.5930	3.5932	-1.2765	6.55	0.56	-0.750			
0.4214	26971.99	3.5900	3.5899	-1.2980	6.55	0.56	-0.750			
0.4253	27221.30	3.5870	3.5869	-1.3053	6.56	0.57	-0.750			
0.4293	27474.46	3.5840	3.5842	-1.3232	6.56	0.57	-0.750			
0.4333	27731.89	3.5810	3.5809	-1.3437	6.56	0.57	-0.750			
0.4373	27989.05	3.5780	3.5779	-1.3586	6.57	0.58	-0.750			
0.4414	28248.93	3.5750	3.5751	-1.3697	6.57	0.58	-0.750			
0.4455	28514.44	3.5720	3.5719	-1.3833	6.58	0.59	-0.750			
0.4499	28790.68	3.5690	3.5689	-1.3625	6.58	0.59	-0.750			
0.4539	29048.78	3.5660	3.5662	-1.3641	6.59	0.60	-0.750			
0.4579	29306.62	3.5630	3.5631	-1.3601	6.60	0.61	-0.750			
0.4619	29561.68	3.5600	3.5596	-1.3719	6.60	0.61	-0.750			
0.4660	29823.16	3.5570	3.5569	-1.4025	6.61	0.62	-0.750			
0.4702	30092.74	3.5540	3.5540	-1.4305	6.61	0.62	-0.750			
0.4746	30377.12	3.5510	3.5510	-1.4779	6.61	0.62	-0.750			
0.4792	30670.67	3.5480	3.5481	-1.5184	6.61	0.62	-0.750			
0.4838	30963.21	3.5450	3.5448	-1.5202	6.61	0.62	-0.750			
0.4885	31261.84	3.5420	3.5421	-1.5294	6.62	0.63	-0.750			
0.4930	31551.89	3.5390	3.5392	-1.5490	6.62	0.63	-0.750			
0.4976	31849.49	3.5360	3.5360	-1.5536	6.62	0.63	-0.750			
0.5023	32149.41	3.5330	3.5328	-1.5795	6.63	0.64	-0.750			
0.5071	32454.25	3.5300	3.5300	-1.5804	6.63	0.64	-0.750			
0.5119	32759.57	3.5270	3.5271	-1.6049	6.63	0.64	-0.750			
0.5168	33073.92	3.5240	3.5241	-1.6123	6.63	0.64	-0.750			
0.5216	33380.08	3.5210	3.5209	-1.6112	6.64	0.65	-0.750			
0.5264	33691.12	3.5180	3.5179	-1.6101	6.64	0.65	-0.750			
0.5313	34001.95	3.5150	3.5150	-1.6094	6.65	0.66	-0.750			
0.5361	34310.51	3.5120	3.5119	-1.6098	6.65	0.66	-0.750			
0.5409	34618.04	3.5090	3.5090	-1.6044	6.65	0.66	-0.750			
0.5457	34923.70	3.5060	3.5059	-1.6030	6.66	0.67	-0.750			
0.5506	35236.16	3.5030	3.5028	-1.6031	6.66	0.67	-0.750			
0.5553	35540.48	3.5000	3.5002	-1.6005	6.67	0.68	-0.750			
0.5602	35850.57	3.4970	3.4974	-1.6012	6.68	0.69	-0.750			
0.5650	36157.82	3.4940	3.4938	-1.6000	6.69	0.70	-0.750			
0.5698	36465.20	3.4910	3.4909	-1.5902	6.69	0.70	-0.750			
0.5746	36773.62	3.4880	3.4881	-1.5965	6.69	0.70	-0.750			
0.5795	37085.66	3.4850	3.4851	-1.6000	6.69	0.70	-0.750			
0.5842	37387.35	3.4820	3.4820	-1.5869	6.70	0.71	-0.750			
0.5889	37691.08	3.4790	3.4788	-1.5824	6.72	0.73	-0.750			
0.5937	37994.82	3.4760	3.4760	-1.5655	6.73	0.74	-0.750			
0.5983	38292.40	3.4730	3.4729	-1.5508	6.74	0.75	-0.750			
0.6030	38591.52	3.4700	3.4699	-1.5397	6.75	0.76	-0.750			
0.6076	38886.18	3.4670	3.4669	-1.5244	6.75	0.76	-0.750			
0.6122	39182.19	3.4640	3.4638	-1.5120	6.76	0.77	-0.750			
0.6167	39466.64	3.4610	3.4612	-1.4930	6.77	0.78	-0.750			
0.6211	39753.47	3.4580	3.4580	-1.4763	6.78	0.79	-0.750			
0.6256	40040.03	3.4550	3.4549	-1.4638	6.78	0.79	-0.750			
0.6300	40318.20	3.4520	3.4521	-1.4484	6.79	0.80	-0.750			
0.6343	40594.40	3.4490	3.4489	-1.4169	6.80	0.81	-0.750			
0.6385	40866.13	3.4460	3.4460	-1.3912	6.81	0.82	-0.750			
0.6427	41132.12	3.4430	3.4432	-1.3728	6.82	0.83	-0.750			
0.6467	41391.69	3.4400	3.4399	-1.3490	6.83	0.84	-0.750			
0.6507	41647.56	3.4370	3.4369	-1.3280	6.84	0.85	-0.750			
0.6547	41898.28	3.4340	3.4341	-1.3082	6.85	0.86	-0.750			
0.6586	42150.63	3.4310	3.4310	-1.2964	6.86	0.87	-0.750			
0.6625	42399.92	3.4280	3.4279	-1.2729	6.88	0.89	-0.750			
0.6663	42641.89	3.4250	3.4251	-1.2438	6.89	0.90	-0.750			
0.6700	42879.48	3.4220	3.4220	-1.2223	6.90	0.91	-0.750			
0.6736	43112.02	3.4190	3.4189	-1.1899	6.91	0.92	-0.750			
0.6771	43336.76	3.4160	3.4160	-1.1627	6.92	0.93	-0.750			
0.6805	43554.48	3.4130	3.4131	-1.1401	6.93	0.94	-0.750			
0.6840	43773.37	3.4100	3.4100	-1.1100	6.94	0.95	-0.750			
0.6873	43984.40	3.4070	3.4069	-1.0800	6.95	0.96	-0.750			
0.6904	44186.07	3.4040	3.4041	-1.0469	6.96	0.97	-0.750			
0.6936	44388.44	3.4010	3.4009	-1.0290	6.98	0.99	-0.750			
0.6966	44583.07	3.3980	3.3979	-1.0021	6.99	1.00	-0.750			
0.6995	44771.08	3.3950	3.3949	-0.9710	7.01	1.02	-0.750			
0.7024	44953.52	3.3920	3.3920	-0.9432	7.02	1.03	-0.750			
0.7052	45135.77	3.3890	3.3891	-0.9226	7.03	1.04	-0.750			
0.7080	45310.40	3.3860	3.3859	-0.8898	7.05	1.06	-0.750			
0.7106	45476.22	3.3830	3.3831	-0.8684	7.06	1.07	-0.750			
0.7131	45638.59	3.3800	3.3801	-0.8460	7.07	1.08	-0.750			
0.7156	45800.48	3.3770	3.3769	-0.8278	7.08	1.09	-0.750			
0.7181	45957.48	3.3740	3.3740	-0.8032	7.09	1.10	-0.750			
0.7204	46108.57	3.3710	3.3711	-0.7834	7.10	1.11	-0.750			
0.7228	46257.39	3.3680	3.3680	-0.7638	7.11	1.12	-0.750			
0.7250	46401.54	3.3650	3.3650	-0.7414	7.12	1.13	-0.750			
0.7272	46541.79	3.3620	3.3619	-0.7300	7.12	1.13	-0.750			
0.7294	46683.04	3.3590	3.3590	-0.7521	7.13	1.14	-0.750			
