Ah_balance (normalized)	Ah_balance (mAh)	Voltage - fit (V)	Voltage -  interpolate (V)	dQ/dV (1/V)	Temperature (°C)	Temperature - diff (°C)	Current (C)	R_DC 0ms (mOhm)	R_DC 50ms (mOhm)	R_DC 50 ms PEC (mOhm)
0.0948	6068.82	4.0060	4.0056	-0.0952	5.98	0.03	-0.750			
0.0952	6090.06	4.0030	4.0029	-0.1237	5.98	0.03	-0.750			
0.0956	6116.47	4.0000	4.0000	-0.1513	5.98	0.03	-0.750			
0.0961	6148.58	3.9970	3.9971	-0.1768	5.97	0.02	-0.750			
0.0966	6185.18	3.9940	3.9940	-0.2009	5.97	0.02	-0.750			
0.0973	6227.11	3.9910	3.9910	-0.2266	5.97	0.02	-0.750			
0.0980	6272.89	3.9880	3.9881	-0.2495	5.97	0.02	-0.750			
0.0988	6322.85	3.9850	3.9849	-0.2728	5.97	0.02	-0.750			
0.0996	6377.52	3.9820	3.9820	-0.2971	5.97	0.02	-0.750			
0.1006	6436.73	3.9790	3.9790	-0.3200	5.96	0.01	-0.750			
0.1016	6500.31	3.9760	3.9760	-0.3447	5.96	0.01	-0.750			
0.1026	6568.91	3.9730	3.9731	-0.3689	5.96	0.01	-0.750			
0.1038	6641.73	3.9700	3.9700	-0.3938	5.96	0.01	-0.750			
0.1050	6719.79	3.9670	3.9670	-0.4191	5.95	0.00	-0.750			
0.1063	6802.27	3.9640	3.9641	-0.4451	5.95	0.00	-0.750			
0.1077	6890.35	3.9610	3.9610	-0.4703	5.95	-0.00	-0.750			
0.1091	6983.78	3.9580	3.9580	-0.4959	5.94	-0.01	-0.750			
0.1106	7081.17	3.9550	3.9550	-0.5200	5.94	-0.01	-0.750			
0.1122	7183.80	3.9520	3.9520	-0.5435	5.94	-0.01	-0.750			
0.1139	7290.75	3.9490	3.9490	-0.5649	5.93	-0.02	-0.750			
0.1157	7401.82	3.9460	3.9459	-0.5838	5.93	-0.02	-0.750			
0.1174	7516.18	3.9430	3.9431	-0.6010	5.92	-0.03	-0.750			
0.1193	7633.93	3.9400	3.9400	-0.6163	5.92	-0.03	-0.750			
0.1212	7754.16	3.9370	3.9369	-0.6304	5.92	-0.03	-0.750			
0.1231	7876.24	3.9340	3.9340	-0.6455	5.92	-0.03	-0.750			
0.1250	8001.07	3.9310	3.9310	-0.6629	5.92	-0.03	-0.750			
0.1271	8131.78	3.9280	3.9279	-0.6749	5.93	-0.02	-0.750			
0.1291	8262.03	3.9250	3.9250	-0.6874	5.93	-0.02	-0.750			
0.1312	8395.98	3.9220	3.9222	-0.6974	5.93	-0.02	-0.750			
0.1333	8530.57	3.9190	3.9189	-0.7097	5.93	-0.02	-0.750			
0.1354	8667.72	3.9160	3.9159	-0.7184	5.94	-0.01	-0.750			
0.1376	8806.26	3.9130	3.9130	-0.7268	5.94	-0.01	-0.750			
0.1398	8949.43	3.9100	3.9100	-0.7346	5.94	-0.01	-0.750			
0.1420	9090.93	3.9070	3.9070	-0.7389	5.95	-0.00	-0.750			
0.1442	9231.68	3.9040	3.9041	-0.7407	5.95	0.00	-0.750			
0.1465	9374.65	3.9010	3.9010	-0.7459	5.95	0.00	-0.750			
0.1487	9517.19	3.8980	3.8979	-0.7495	5.96	0.01	-0.750			
0.1510	9662.00	3.8950	3.8950	-0.7527	5.96	0.01	-0.750			
0.1532	9807.28	3.8920	3.8921	-0.7613	5.97	0.02	-0.750			
0.1555	9954.78	3.8890	3.8890	-0.7627	5.97	0.02	-0.750			
0.1578	10100.71	3.8860	3.8860	-0.7659	5.97	0.02	-0.750			
0.1601	10246.65	3.8830	3.8830	-0.7809	5.98	0.03	-0.750			
0.1625	10397.36	3.8800	3.8801	-0.7870	5.98	0.03	-0.750			
0.1649	10550.48	3.8770	3.8769	-0.7932	5.98	0.03	-0.750			
0.1673	10705.80	3.8740	3.8740	-0.8002	5.99	0.04	-0.750			
0.1697	10859.70	3.8710	3.8711	-0.7986	5.99	0.04	-0.750			
0.1721	11012.81	3.8680	3.8680	-0.7994	6.00	0.05	-0.750			
0.1745	11166.14	3.8650	3.8649	-0.7945	6.01	0.06	-0.750			
0.1768	11316.74	3.8620	3.8621	-0.7895	6.02	0.07	-0.750			
0.1792	11469.16	3.8590	3.8590	-0.7958	6.02	0.07	-0.750			
0.1816	11622.38	3.8560	3.8561	-0.8003	6.03	0.08	-0.750			
0.1840	11775.74	3.8530	3.8529	-0.8029	6.03	0.08	-0.750			
0.1864	11930.41	3.8500	3.8500	-0.8051	6.04	0.09	-0.750			
0.1888	12085.65	3.8470	3.8470	-0.8057	6.04	0.09	-0.750			
0.1913	12241.24	3.8440	3.8440	-0.8095	6.05	0.10	-0.750			
0.1937	12396.84	3.8410	3.8410	-0.8056	6.05	0.10	-0.750			
0.1961	12549.75	3.8380	3.8380	-0.8048	6.06	0.11	-0.750			
0.1985	12704.39	3.8350	3.8350	-0.8114	6.06	0.11	-0.750			
0.2009	12860.19	3.8320	3.8320	-0.8147	6.07	0.12	-0.750			
0.2034	13018.27	3.8290	3.8289	-0.8139	6.08	0.13	-0.750			
0.2059	13175.50	3.8260	3.8262	-0.8173	6.09	0.14	-0.750			
0.2083	13332.15	3.8230	3.8230	-0.8197	6.10	0.15	-0.750			
0.2108	13489.88	3.8200	3.8199	-0.8222	6.10	0.15	-0.750			
0.2132	13646.82	3.8170	3.8170	-0.8205	6.11	0.16	-0.750			
0.2157	13803.74	3.8140	3.8141	-0.8165	6.12	0.17	-0.750			
0.2182	13963.80	3.8110	3.8110	-0.8188	6.13	0.18	-0.750			
0.2207	14121.78	3.8080	3.8080	-0.8162	6.14	0.19	-0.750			
0.2231	14276.47	3.8050	3.8050	-0.8125	6.14	0.19	-0.750			
0.2255	14432.87	3.8020	3.8020	-0.8069	6.15	0.20	-0.750			
0.2279	14586.77	3.7990	3.7990	-0.8065	6.16	0.21	-0.750			
0.2303	14740.98	3.7960	3.7959	-0.8091	6.17	0.22	-0.750			
0.2328	14896.17	3.7930	3.7930	-0.8123	6.17	0.22	-0.750			
0.2352	15050.42	3.7900	3.7900	-0.8191	6.18	0.23	-0.750			
0.2376	15208.47	3.7870	3.7870	-0.8236	6.19	0.24	-0.750			
0.2401	15367.81	3.7840	3.7840	-0.8278	6.20	0.25	-0.750			
0.2427	15529.93	3.7810	3.7809	-0.8330	6.21	0.26	-0.750			
0.2452	15689.85	3.7780	3.7780	-0.8343	6.21	0.26	-0.750			
0.2477	15850.19	3.7750	3.7750	-0.8377	6.22	0.27	-0.750			
0.2502	16011.07	3.7720	3.7719	-0.8372	6.22	0.27	-0.750			
0.2527	16170.48	3.7690	3.7690	-0.8355	6.22	0.27	-0.750			
0.2552	16333.33	3.7660	3.7659	-0.8372	6.23	0.28	-0.750			
0.2577	16494.66	3.7630	3.7630	-0.8367	6.23	0.28	-0.750			
0.2602	16654.18	3.7600	3.7600	-0.8390	6.24	0.29	-0.750			
0.2627	16814.20	3.7570	3.7569	-0.8378	6.25	0.30	-0.750			
0.2652	16974.59	3.7540	3.7540	-0.8369	6.26	0.31	-0.750			
0.2678	17137.21	3.7510	3.7508	-0.8404	6.27	0.32	-0.750			
0.2703	17299.05	3.7480	3.7480	-0.8430	6.27	0.32	-0.750			
0.2728	17461.20	3.7450	3.7450	-0.8460	6.28	0.33	-0.750			
0.2754	17623.17	3.7420	3.7421	-0.8459	6.29	0.34	-0.750			
0.2779	17785.20	3.7390	3.7390	-0.8394	6.30	0.35	-0.750			
0.2804	17947.72	3.7360	3.7359	-0.8474	6.31	0.36	-0.750			
0.2830	18110.21	3.7330	3.7330	-0.8482	6.32	0.37	-0.750			
0.2855	18272.66	3.7300	3.7300	-0.8484	6.32	0.37	-0.750			
0.2881	18435.48	3.7270	3.7269	-0.8487	6.33	0.38	-0.750			
0.2906	18597.30	3.7240	3.7240	-0.8483	6.34	0.39	-0.750			
0.2931	18761.59	3.7210	3.7211	-0.8571	6.35	0.40	-0.750			
0.2957	18926.26	3.7180	3.7180	-0.8652	6.36	0.41	-0.750			
0.2983	19091.31	3.7150	3.7149	-0.8678	6.36	0.41	-0.750			
0.3010	19261.41	3.7120	3.7120	-0.8741	6.37	0.42	-0.750			
0.3036	19430.10	3.7090	3.7090	-0.8788	6.38	0.43	-0.750			
0.3063	19600.68	3.7060	3.7061	-0.8827	6.39	0.44	-0.750			
0.3089	19768.97	3.7030	3.7030	-0.8858	6.40	0.45	-0.750			
0.3115	19937.83	3.7000	3.6999	-0.8846	6.41	0.46	-0.750			
0.3142	20106.74	3.6970	3.6970	-0.8913	6.42	0.47	-0.750			
0.3168	20277.36	3.6940	3.6939	-0.9008	6.42	0.47	-0.750			
0.3195	20451.10	3.6910	3.6911	-0.9142	6.43	0.48	-0.750			
0.3223	20627.78	3.6880	3.6879	-0.9248	6.44	0.49	-0.750			
0.3251	20806.94	3.6850	3.6850	-0.9380	6.44	0.49	-0.750			
0.3279	20988.72	3.6820	3.6820	-0.9471	6.44	0.49	-0.750			
0.3308	21173.40	3.6790	3.6790	-0.9600	6.45	0.50	-0.750			
0.3337	21357.51	3.6760	3.6760	-0.9709	6.46	0.51	-0.750			
0.3367	21546.12	3.6730	3.6729	-0.9744	6.47	0.52	-0.750			
0.3396	21733.53	3.6700	3.6700	-0.9823	6.48	0.53	-0.750			
0.3425	21922.22	3.6670	3.6669	-0.9965	6.49	0.54	-0.750			
0.3455	22113.04	3.6640	3.6641	-1.0106	6.49	0.54	-0.750			
0.3486	22309.07	3.6610	3.6609	-1.0204	6.50	0.55	-0.750			
0.3516	22505.40	3.6580	3.6580	-1.0329	6.50	0.55	-0.750			
0.3548	22704.07	3.6550	3.6550	-1.0458	6.51	0.56	-0.750			
0.3580	22909.30	3.6520	3.6519	-1.0684	6.51	0.56	-0.750			
0.3612	23117.54	3.6490	3.6489	-1.0732	6.52	0.57	-0.750			
0.3644	23323.80	3.6460	3.6460	-1.0849	6.52	0.57	-0.750			
0.3677	23532.27	3.6430	3.6431	-1.0992	6.53	0.58	-0.750			
0.3710	23745.79	3.6400	3.6399	-1.1224	6.53	0.58	-0.750			
0.3744	23962.74	3.6370	3.6369	-1.1300	6.54	0.59	-0.750			
0.3778	24180.74	3.6340	3.6339	-1.1419	6.54	0.59	-0.750			
0.3812	24399.62	3.6310	3.6313	-1.1623	6.55	0.60	-0.750			
0.3848	24628.48	3.6280	3.6279	-1.1869	6.56	0.61	-0.750			
0.3884	24856.00	3.6250	3.6249	-1.1948	6.56	0.61	-0.750			
0.3920	25084.87	3.6220	3.6219	-1.2079	6.57	0.62	-0.750			
0.3956	25320.58	3.6190	3.6191	-1.2343	6.57	0.62	-0.750			
0.3994	25559.58	3.6160	3.6160	-1.2521	6.58	0.63	-0.750			
0.4031	25800.93	3.6130	3.6130	-1.2663	6.58	0.63	-0.750			
0.4069	26043.57	3.6100	3.6101	-1.2901	6.59	0.64	-0.750			
0.4109	26299.12	3.6070	3.6070	-1.3065	6.60	0.65	-0.750			
0.4149	26553.60	3.6040	3.6039	-1.3238	6.60	0.65	-0.750			
0.4189	26807.78	3.6010	3.6013	-1.3461	6.61	0.66	-0.750	0.506	1.146	
0.4229	27067.71	3.5980	3.5978	-1.3600	6.61	0.66	-0.750			
0.4270	27330.06	3.5950	3.5949	-1.3761	6.61	0.66	-0.750			
0.4311	27592.75	3.5920	3.5923	-1.3902	6.61	0.66	-0.750			
0.4354	27868.48	3.5890	3.5890	-1.4177	6.62	0.67	-0.750			
0.4397	28139.89	3.5860	3.5859	-1.4407	6.62	0.67	-0.750			
0.4440	28416.16	3.5830	3.5831	-1.4484	6.63	0.68	-0.750			
0.4484	28694.60	3.5800	3.5799	-1.4744	6.63	0.68	-0.750			
0.4528	28978.92	3.5770	3.5769	-1.5021	6.64	0.69	-0.750			
0.4574	29272.79	3.5740	3.5739	-1.5110	6.64	0.69	-0.750			
0.4620	29569.12	3.5710	3.5708	-1.5220	6.64	0.69	-0.750			
0.4666	29862.37	3.5680	3.5680	-1.5499	6.65	0.70	-0.750			
0.4712	30159.55	3.5650	3.5649	-1.5569	6.65	0.70	-0.750			
0.4760	30462.45	3.5620	3.5617	-1.5862	6.66	0.71	-0.750			
0.4807	30764.23	3.5590	3.5593	-1.6006	6.67	0.72	-0.750			
0.4855	31073.43	3.5560	3.5560	-1.6317	6.67	0.72	-0.750			
0.4905	31395.11	3.5530	3.5528	-1.6653	6.68	0.73	-0.750			
0.4956	31718.23	3.5500	3.5499	-1.6704	6.68	0.73	-0.750			
0.5006	32040.07	3.5470	3.5470	-1.6870	6.69	0.74	-0.750			
0.5057	32365.68	3.5440	3.5439	-1.7045	6.69	0.74	-0.750			
0.5108	32690.10	3.5410	3.5410	-1.7083	6.70	0.75	-0.750			
0.5160	33022.90	3.5380	3.5378	-1.7388	6.71	0.76	-0.750			
0.5212	33355.92	3.5350	3.5351	-1.7419	6.71	0.76	-0.750			
0.5264	33689.99	3.5320	3.5319	-1.7602	6.72	0.77	-0.750			
0.5318	34032.51	3.5290	3.5291	-1.7803	6.73	0.78	-0.750			
0.5371	34377.53	3.5260	3.5258	-1.7781	6.73	0.78	-0.750			
0.5426	34724.42	3.5230	3.5231	-1.7899	6.73	0.78	-0.750			
0.5479	35063.40	3.5200	3.5200	-1.7882	6.74	0.79	-0.750			
0.5533	35409.58	3.5170	3.5168	-1.7878	6.75	0.80	-0.750			
0.5587	35755.36	3.5140	3.5141	-1.7879	6.76	0.81	-0.750			
0.5641	36099.28	3.5110	3.5110	-1.7947	6.77	0.82	-0.750			
0.5694	36443.00	3.5080	3.5081	-1.7925	6.77	0.82	-0.750			
0.5748	36789.04	3.5050	3.5052	-1.7733	6.77	0.82	-0.750			
0.5802	37131.59	3.5020	3.5020	-1.7784	6.78	0.83	-0.750			
0.5854	37467.30	3.4990	3.4990	-1.7622	6.79	0.84	-0.750			
0.5908	37810.61	3.4960	3.4958	-1.7478	6.80	0.85	-0.750			
0.5960	38140.98	3.4930	3.4931	-1.7430	6.81	0.86	-0.750			
0.6011	38469.78	3.4900	3.4900	-1.7391	6.82	0.87	-0.750			
0.6064	38807.50	3.4870	3.4872	-1.7245	6.83	0.88	-0.750			
0.6115	39138.59	3.4840	3.4840	-1.6975	6.84	0.89	-0.750			
0.6166	39462.39	3.4810	3.4811	-1.6761	6.85	0.90	-0.750			
0.6216	39783.12	3.4780	3.4779	-1.6604	6.87	0.92	-0.750			
0.6266	40102.30	3.4750	3.4748	-1.6473	6.88	0.93	-0.750			
0.6315	40412.81	3.4720	3.4721	-1.6118	6.89	0.94	-0.750			
0.6363	40720.03	3.4690	3.4689	-1.5913	6.90	0.95	-0.750			
0.6410	41027.17	3.4660	3.4662	-1.5775	6.91	0.96	-0.750			
0.6458	41332.11	3.4630	3.4630	-1.5562	6.92	0.97	-0.750			
0.6504	41627.27	3.4600	3.4599	-1.5324	6.93	0.98	-0.750			
0.6550	41918.53	3.4570	3.4569	-1.5042	6.95	1.00	-0.750			
0.6595	42204.96	3.4540	3.4539	-1.4741	6.96	1.01	-0.750			
0.6638	42485.59	3.4510	3.4510	-1.4489	6.97	1.02	-0.750			
0.6681	42758.98	3.4480	3.4481	-1.4232	6.99	1.04	-0.750			
0.6724	43031.88	3.4450	3.4449	-1.4017	7.01	1.06	-0.750			
0.6765	43297.43	3.4420	3.4419	-1.3670	7.03	1.08	-0.750			
0.6806	43555.34	3.4390	3.4392	-1.3402	7.05	1.10	-0.750			
0.6845	43810.89	3.4360	3.4360	-1.3090	7.06	1.11	-0.750			
0.6885	44062.54	3.4330	3.4329	-1.2808	7.07	1.12	-0.750			
0.6922	44303.17	3.4300	3.4300	-1.2482	7.09	1.14	-0.750			
0.6959	44537.85	3.4270	3.4270	-1.2171	7.10	1.15	-0.750			
0.6996	44772.46	3.4240	3.4240	-1.1926	7.11	1.16	-0.750			
0.7031	44998.14	3.4210	3.4210	-1.1603	7.12	1.17	-0.750			
0.7065	45216.58	3.4180	3.4181	-1.1288	7.13	1.18	-0.750			
0.7099	45432.70	3.4150	3.4150	-1.0972	7.15	1.20	-0.750			
0.7131	45640.54	3.4120	3.4119	-1.0634	7.16	1.21	-0.750			
0.7162	45839.84	3.4090	3.4090	-1.0341	7.18	1.23	-0.750			
0.7193	46034.73	3.4060	3.4061	-1.0079	7.19	1.24	-0.750			
0.7223	46224.59	3.4030	3.4030	-0.9808	7.21	1.26	-0.750			
0.7252	46410.13	3.4000	3.3999	-0.9554	7.23	1.28	-0.750			
0.7280	46591.92	3.3970	3.3969	-0.9278	7.24	1.29	-0.750			
0.7308	46770.02	3.3940	3.3941	-0.9026	7.26	1.31	-0.750			
0.7334	46939.56	3.3910	3.3910	-0.8722	7.27	1.32	-0.750			
0.7360	47103.08	3.3880	3.3879	-0.8423	7.29	1.34	-0.750			
0.7385	47262.82	3.3850	3.3850	-0.8153	7.30	1.35	-0.750			
0.7409	47415.06	3.3820	3.3820	-0.7967	7.31	1.36	-0.750			
0.7432	47566.22	3.3790	3.3790	-0.7798	7.33	1.38	-0.750			
