Ah_balance (normalized)	Ah_balance (mAh)	Voltage - fit (V)	Voltage -  interpolate (V)	dQ/dV (1/V)	Temperature (°C)	Temperature - diff (°C)	Current (C)	R_DC 0ms (mOhm)	R_DC 50ms (mOhm)	R_DC 50 ms PEC (mOhm)
0.0935	5981.94	4.0030	4.0024	-0.0707	5.95	0.00	-0.750			
0.0937	5998.23	4.0000	3.9997	-0.0991	5.95	0.00	-0.750			
0.0941	6020.67	3.9970	3.9969	-0.1262	5.95	0.00	-0.750			
0.0945	6047.13	3.9940	3.9940	-0.1534	5.95	0.00	-0.750			
0.0950	6079.26	3.9910	3.9911	-0.1800	5.95	0.00	-0.750			
0.0956	6116.52	3.9880	3.9881	-0.2041	5.95	0.00	-0.750			
0.0962	6159.25	3.9850	3.9850	-0.2281	5.95	0.00	-0.750			
0.0970	6205.36	3.9820	3.9821	-0.2514	5.95	0.00	-0.750			
0.0977	6255.99	3.9790	3.9790	-0.2743	5.95	0.00	-0.750			
0.0986	6310.50	3.9760	3.9761	-0.2982	5.95	0.00	-0.750			
0.0995	6369.48	3.9730	3.9730	-0.3203	5.95	0.00	-0.750			
0.1005	6433.49	3.9700	3.9700	-0.3438	5.95	0.00	-0.750			
0.1016	6502.17	3.9670	3.9670	-0.3687	5.95	0.00	-0.750			
0.1028	6576.15	3.9640	3.9640	-0.3916	5.95	0.00	-0.750			
0.1040	6653.32	3.9610	3.9610	-0.4120	5.95	0.00	-0.750			
0.1052	6734.02	3.9580	3.9580	-0.4339	5.95	0.00	-0.750			
0.1065	6818.86	3.9550	3.9550	-0.4555	5.95	0.00	-0.750			
0.1079	6908.70	3.9520	3.9519	-0.4786	5.95	0.00	-0.750			
0.1094	7002.24	3.9490	3.9490	-0.5018	5.95	0.00	-0.750			
0.1110	7102.13	3.9460	3.9460	-0.5232	5.95	0.00	-0.750			
0.1126	7205.22	3.9430	3.9430	-0.5417	5.95	0.00	-0.750			
0.1143	7312.40	3.9400	3.9400	-0.5576	5.95	0.00	-0.750			
0.1160	7421.03	3.9370	3.9371	-0.5695	5.95	0.00	-0.750			
0.1177	7531.15	3.9340	3.9339	-0.5820	5.95	0.00	-0.750			
0.1194	7643.54	3.9310	3.9310	-0.5957	5.95	0.00	-0.750			
0.1212	7758.61	3.9280	3.9280	-0.6061	5.95	0.00	-0.750			
0.1231	7875.97	3.9250	3.9250	-0.6229	5.95	0.00	-0.750			
0.1250	7998.16	3.9220	3.9220	-0.6352	5.95	0.00	-0.750			
0.1269	8122.28	3.9190	3.9190	-0.6467	5.95	0.00	-0.750			
0.1289	8248.39	3.9160	3.9159	-0.6525	5.95	0.00	-0.750			
0.1309	8374.79	3.9130	3.9131	-0.6577	5.95	0.00	-0.750			
0.1328	8501.93	3.9100	3.9100	-0.6609	5.95	0.00	-0.750			
0.1348	8628.85	3.9070	3.9070	-0.6692	5.96	0.01	-0.750			
0.1368	8755.66	3.9040	3.9040	-0.6690	5.96	0.01	-0.750			
0.1388	8885.80	3.9010	3.9010	-0.6805	5.96	0.01	-0.750			
0.1409	9017.50	3.8980	3.8980	-0.6873	5.97	0.02	-0.750			
0.1430	9151.31	3.8950	3.8951	-0.6908	5.97	0.02	-0.750			
0.1451	9284.69	3.8920	3.8920	-0.6958	5.97	0.02	-0.750			
0.1471	9417.57	3.8890	3.8891	-0.7024	5.98	0.03	-0.750			
0.1493	9553.06	3.8860	3.8859	-0.7023	5.98	0.03	-0.750			
0.1514	9688.76	3.8830	3.8829	-0.7055	5.98	0.03	-0.750			
0.1535	9824.41	3.8800	3.8800	-0.7046	5.99	0.04	-0.750			
0.1556	9959.92	3.8770	3.8772	-0.7113	5.99	0.04	-0.750			
0.1578	10096.55	3.8740	3.8740	-0.7158	5.99	0.04	-0.750			
0.1599	10232.16	3.8710	3.8710	-0.7188	6.00	0.05	-0.750			
0.1621	10372.02	3.8680	3.8680	-0.7204	6.00	0.05	-0.750			
0.1643	10512.95	3.8650	3.8650	-0.7254	6.00	0.05	-0.750			
0.1664	10651.59	3.8620	3.8620	-0.7250	6.01	0.06	-0.750			
0.1686	10791.75	3.8590	3.8589	-0.7255	6.01	0.06	-0.750			
0.1708	10929.55	3.8560	3.8560	-0.7239	6.02	0.07	-0.750			
0.1729	11067.58	3.8530	3.8530	-0.7248	6.03	0.08	-0.750			
0.1751	11207.20	3.8500	3.8500	-0.7273	6.03	0.08	-0.750			
0.1773	11348.13	3.8470	3.8470	-0.7338	6.04	0.09	-0.750			
0.1795	11488.99	3.8440	3.8440	-0.7347	6.05	0.10	-0.750			
0.1817	11629.84	3.8410	3.8410	-0.7347	6.05	0.10	-0.750			
0.1839	11771.01	3.8380	3.8380	-0.7371	6.06	0.11	-0.750			
0.1861	11912.53	3.8350	3.8350	-0.7401	6.07	0.12	-0.750			
0.1884	12056.14	3.8320	3.8320	-0.7371	6.08	0.13	-0.750			
0.1906	12198.36	3.8290	3.8289	-0.7373	6.08	0.13	-0.750			
0.1928	12339.31	3.8260	3.8262	-0.7353	6.09	0.14	-0.750			
0.1950	12480.58	3.8230	3.8229	-0.7360	6.10	0.15	-0.750			
0.1972	12620.22	3.8200	3.8199	-0.7387	6.10	0.15	-0.750			
0.1994	12762.58	3.8170	3.8170	-0.7374	6.11	0.16	-0.750			
0.2016	12904.53	3.8140	3.8140	-0.7416	6.11	0.16	-0.750			
0.2039	13047.49	3.8110	3.8110	-0.7403	6.12	0.17	-0.750			
0.2061	13188.96	3.8080	3.8081	-0.7400	6.12	0.17	-0.750			
0.2083	13331.03	3.8050	3.8050	-0.7390	6.13	0.18	-0.750			
0.2105	13471.22	3.8020	3.8019	-0.7395	6.13	0.18	-0.750			
0.2127	13612.83	3.7990	3.7991	-0.7404	6.14	0.19	-0.750			
0.2150	13757.37	3.7960	3.7960	-0.7452	6.14	0.19	-0.750			
0.2172	13900.34	3.7930	3.7930	-0.7473	6.15	0.20	-0.750			
0.2195	14045.04	3.7900	3.7900	-0.7480	6.16	0.21	-0.750			
0.2217	14186.83	3.7870	3.7869	-0.7487	6.17	0.22	-0.750			
0.2239	14331.52	3.7840	3.7840	-0.7510	6.17	0.22	-0.750			
0.2262	14474.55	3.7810	3.7811	-0.7508	6.18	0.23	-0.750			
0.2284	14620.49	3.7780	3.7779	-0.7544	6.19	0.24	-0.750			
0.2307	14765.67	3.7750	3.7751	-0.7569	6.20	0.25	-0.750			
0.2330	14909.90	3.7720	3.7720	-0.7582	6.21	0.26	-0.750			
0.2352	15055.87	3.7690	3.7690	-0.7646	6.22	0.27	-0.750			
0.2376	15203.36	3.7660	3.7660	-0.7690	6.22	0.27	-0.750			
0.2399	15351.47	3.7630	3.7629	-0.7726	6.23	0.28	-0.750			
0.2422	15500.76	3.7600	3.7600	-0.7731	6.24	0.29	-0.750			
0.2445	15649.74	3.7570	3.7570	-0.7742	6.24	0.29	-0.750			
0.2468	15796.59	3.7540	3.7541	-0.7795	6.25	0.30	-0.750			
0.2492	15946.93	3.7510	3.7510	-0.7784	6.26	0.31	-0.750			
0.2515	16095.94	3.7480	3.7479	-0.7818	6.26	0.31	-0.750			
0.2539	16246.42	3.7450	3.7450	-0.7886	6.27	0.32	-0.750			
0.2562	16399.27	3.7420	3.7421	-0.7918	6.27	0.32	-0.750			
0.2586	16551.94	3.7390	3.7389	-0.8018	6.28	0.33	-0.750			
0.2610	16706.36	3.7360	3.7361	-0.8042	6.29	0.34	-0.750			
0.2634	16858.86	3.7330	3.7330	-0.8058	6.30	0.35	-0.750			
0.2659	17016.01	3.7300	3.7299	-0.8174	6.30	0.35	-0.750			
0.2683	17173.19	3.7270	3.7271	-0.8195	6.31	0.36	-0.750			
0.2708	17330.81	3.7240	3.7240	-0.8255	6.32	0.37	-0.750			
0.2733	17492.44	3.7210	3.7210	-0.8316	6.33	0.38	-0.750			
0.2758	17650.64	3.7180	3.7180	-0.8357	6.34	0.39	-0.750			
0.2783	17811.70	3.7150	3.7150	-0.8440	6.34	0.39	-0.750			
0.2808	17974.25	3.7120	3.7120	-0.8487	6.35	0.40	-0.750			
0.2834	18137.12	3.7090	3.7090	-0.8560	6.35	0.40	-0.750			
0.2860	18302.11	3.7060	3.7060	-0.8643	6.36	0.41	-0.750			
0.2886	18468.32	3.7030	3.7031	-0.8714	6.36	0.41	-0.750			
0.2912	18637.27	3.7000	3.6999	-0.8817	6.37	0.42	-0.750			
0.2939	18806.52	3.6970	3.6969	-0.8851	6.37	0.42	-0.750			
0.2965	18977.46	3.6940	3.6941	-0.8930	6.38	0.43	-0.750			
0.2992	19149.96	3.6910	3.6910	-0.9006	6.38	0.43	-0.750			
0.3019	19324.09	3.6880	3.6880	-0.9059	6.38	0.43	-0.750			
0.3047	19498.89	3.6850	3.6850	-0.9123	6.39	0.44	-0.750			
0.3074	19672.20	3.6820	3.6820	-0.9215	6.39	0.44	-0.750			
0.3102	19850.19	3.6790	3.6790	-0.9300	6.40	0.45	-0.750			
0.3130	20031.38	3.6760	3.6759	-0.9360	6.40	0.45	-0.750			
0.3158	20211.12	3.6730	3.6729	-0.9390	6.41	0.46	-0.750			
0.3186	20392.10	3.6700	3.6701	-0.9479	6.41	0.46	-0.750			
0.3215	20574.77	3.6670	3.6671	-0.9600	6.42	0.47	-0.750			
0.3244	20759.40	3.6640	3.6638	-0.9649	6.42	0.47	-0.750			
0.3272	20943.95	3.6610	3.6610	-0.9716	6.43	0.48	-0.750			
0.3302	21134.15	3.6580	3.6583	-0.9844	6.43	0.48	-0.750			
0.3332	21325.93	3.6550	3.6549	-1.0000	6.44	0.49	-0.750			
0.3362	21519.00	3.6520	3.6519	-0.9992	6.45	0.50	-0.750			
0.3392	21709.05	3.6490	3.6490	-1.0049	6.46	0.51	-0.750			
0.3422	21903.97	3.6460	3.6460	-1.0129	6.47	0.52	-0.750			
0.3453	22098.07	3.6430	3.6429	-1.0210	6.47	0.52	-0.750			
0.3483	22292.17	3.6400	3.6401	-1.0282	6.47	0.52	-0.750			
0.3514	22490.85	3.6370	3.6370	-1.0386	6.47	0.52	-0.750			
0.3545	22690.86	3.6340	3.6336	-1.0472	6.47	0.52	-0.750			
0.3577	22895.65	3.6310	3.6310	-1.0656	6.48	0.53	-0.750			
0.3609	23099.94	3.6280	3.6280	-1.0733	6.48	0.53	-0.750			
0.3642	23309.18	3.6250	3.6250	-1.0844	6.49	0.54	-0.750			
0.3675	23520.05	3.6220	3.6221	-1.0982	6.50	0.55	-0.750			
0.3708	23728.52	3.6190	3.6189	-1.1087	6.50	0.55	-0.750			
0.3741	23945.21	3.6160	3.6159	-1.1081	6.51	0.56	-0.750			
0.3775	24158.22	3.6130	3.6129	-1.1124	6.51	0.56	-0.750			
0.3808	24369.83	3.6100	3.6103	-1.1205	6.51	0.56	-0.750			
0.3842	24586.21	3.6070	3.6068	-1.1298	6.52	0.57	-0.750			
0.3875	24802.73	3.6040	3.6040	-1.1403	6.52	0.57	-0.750			
0.3909	25020.01	3.6010	3.6009	-1.1490	6.53	0.58	-0.750			
0.3944	25243.65	3.5980	3.5980	-1.1825	6.53	0.58	-0.750			
0.3981	25476.05	3.5950	3.5949	-1.1906	6.53	0.58	-0.750			
0.4016	25705.57	3.5920	3.5919	-1.1963	6.54	0.59	-0.750			
0.4052	25935.38	3.5890	3.5891	-1.2019	6.54	0.59	-0.750	0.469	1.061	
0.4089	26169.79	3.5860	3.5860	-1.2059	6.54	0.59	-0.750			
0.4125	26401.07	3.5830	3.5829	-1.2072	6.54	0.59	-0.750			
0.4161	26629.73	3.5800	3.5800	-1.2205	6.54	0.59	-0.750			
0.4197	26860.42	3.5770	3.5770	-1.2313	6.54	0.59	-0.750			
0.4235	27101.36	3.5740	3.5739	-1.2531	6.55	0.60	-0.750			
0.4272	27343.90	3.5710	3.5709	-1.2633	6.56	0.61	-0.750			
0.4311	27588.81	3.5680	3.5682	-1.2816	6.56	0.61	-0.750			
0.4350	27838.15	3.5650	3.5650	-1.3021	6.56	0.61	-0.750			
0.4389	28089.76	3.5620	3.5619	-1.3102	6.57	0.62	-0.750			
0.4428	28341.99	3.5590	3.5591	-1.3258	6.57	0.62	-0.750			
0.4469	28598.56	3.5560	3.5560	-1.3353	6.58	0.63	-0.750			
0.4509	28856.30	3.5530	3.5530	-1.3458	6.58	0.63	-0.750			
0.4549	29116.34	3.5500	3.5502	-1.3607	6.59	0.64	-0.750			
0.4590	29377.64	3.5470	3.5469	-1.3710	6.59	0.64	-0.750			
0.4631	29640.95	3.5440	3.5439	-1.3769	6.59	0.64	-0.750			
0.4673	29906.59	3.5410	3.5411	-1.3995	6.59	0.64	-0.750			
0.4716	30181.50	3.5380	3.5379	-1.4160	6.60	0.65	-0.750			
0.4758	30453.88	3.5350	3.5349	-1.4225	6.60	0.65	-0.750			
0.4801	30727.54	3.5320	3.5324	-1.4337	6.61	0.66	-0.750			
0.4844	31002.33	3.5290	3.5290	-1.4529	6.62	0.67	-0.750			
0.4888	31285.57	3.5260	3.5258	-1.4563	6.62	0.67	-0.750			
0.4932	31565.57	3.5230	3.5231	-1.4631	6.63	0.68	-0.750			
0.4976	31848.46	3.5200	3.5203	-1.4814	6.64	0.69	-0.750			
0.5021	32134.06	3.5170	3.5168	-1.4789	6.64	0.69	-0.750			
0.5065	32417.10	3.5140	3.5140	-1.4869	6.65	0.70	-0.750			
0.5109	32700.40	3.5110	3.5111	-1.5062	6.65	0.70	-0.750			
0.5155	32989.00	3.5080	3.5080	-1.5152	6.66	0.71	-0.750			
0.5202	33290.03	3.5050	3.5050	-1.5245	6.67	0.72	-0.750			
0.5247	33580.73	3.5020	3.5020	-1.5293	6.68	0.73	-0.750			
0.5293	33875.36	3.4990	3.4989	-1.5274	6.69	0.74	-0.750			
0.5339	34169.03	3.4960	3.4959	-1.5260	6.70	0.75	-0.750			
0.5385	34465.82	3.4930	3.4929	-1.5258	6.70	0.75	-0.750			
0.5431	34758.56	3.4900	3.4902	-1.5193	6.71	0.76	-0.750			
0.5477	35050.45	3.4870	3.4872	-1.5250	6.72	0.77	-0.750			
0.5522	35343.88	3.4840	3.4839	-1.5298	6.73	0.78	-0.750			
0.5568	35634.95	3.4810	3.4810	-1.5270	6.74	0.79	-0.750			
0.5614	35928.82	3.4780	3.4779	-1.5275	6.75	0.80	-0.750			
0.5660	36225.86	3.4750	3.4750	-1.5247	6.77	0.82	-0.750			
0.5706	36517.08	3.4720	3.4719	-1.5035	6.78	0.83	-0.750			
0.5751	36807.28	3.4690	3.4691	-1.5061	6.79	0.84	-0.750			
0.5796	37091.49	3.4660	3.4660	-1.4910	6.81	0.86	-0.750			
0.5840	37377.91	3.4630	3.4629	-1.4800	6.82	0.87	-0.750			
0.5885	37661.59	3.4600	3.4602	-1.4698	6.82	0.87	-0.750			
0.5929	37945.87	3.4570	3.4571	-1.4642	6.83	0.88	-0.750			
0.5973	38226.08	3.4540	3.4539	-1.4633	6.84	0.89	-0.750			
0.6017	38508.65	3.4510	3.4510	-1.4465	6.86	0.91	-0.750			
0.6060	38783.15	3.4480	3.4480	-1.4245	6.87	0.92	-0.750			
0.6103	39059.29	3.4450	3.4454	-1.4098	6.89	0.94	-0.750			
0.6145	39328.67	3.4420	3.4419	-1.3857	6.90	0.95	-0.750			
0.6186	39590.23	3.4390	3.4390	-1.3657	6.91	0.96	-0.750			
0.6226	39849.37	3.4360	3.4359	-1.3416	6.93	0.98	-0.750			
0.6267	40108.14	3.4330	3.4330	-1.3292	6.95	1.00	-0.750			
0.6306	40361.18	3.4300	3.4301	-1.3097	6.97	1.02	-0.750			
0.6346	40611.78	3.4270	3.4270	-1.2850	6.99	1.04	-0.750			
0.6384	40856.04	3.4240	3.4239	-1.2585	7.00	1.05	-0.750			
0.6421	41093.40	3.4210	3.4212	-1.2284	7.02	1.07	-0.750			
0.6458	41328.33	3.4180	3.4179	-1.2050	7.03	1.08	-0.750			
0.6493	41555.96	3.4150	3.4150	-1.1755	7.05	1.10	-0.750			
0.6528	41778.22	3.4120	3.4120	-1.1496	7.06	1.11	-0.750			
0.6562	41994.31	3.4090	3.4091	-1.1249	7.08	1.13	-0.750			
0.6596	42211.31	3.4060	3.4059	-1.1028	7.10	1.15	-0.750			
0.6628	42419.99	3.4030	3.4030	-1.0777	7.12	1.17	-0.750			
0.6660	42624.17	3.4000	3.4001	-1.0498	7.14	1.19	-0.750			
0.6692	42826.01	3.3970	3.3970	-1.0273	7.16	1.21	-0.750			
0.6722	43019.79	3.3940	3.3940	-1.0027	7.17	1.22	-0.750			
0.6752	43209.73	3.3910	3.3909	-0.9754	7.19	1.24	-0.750			
0.6780	43394.06	3.3880	3.3880	-0.9495	7.21	1.26	-0.750			
0.6809	43574.59	3.3850	3.3851	-0.9303	7.22	1.27	-0.750			
0.6836	43750.15	3.3820	3.3819	-0.9064	7.24	1.29	-0.750			
0.6863	43922.29	3.3790	3.3790	-0.8844	7.26	1.31	-0.750			
0.6889	44088.63	3.3760	3.3761	-0.8617	7.28	1.33	-0.750			
0.6915	44253.16	3.3730	3.3730	-0.8429	7.29	1.34	-0.750			
0.6940	44413.32	3.3700	3.3699	-0.8190	7.31	1.36	-0.750			
0.6964	44566.70	3.3670	3.3671	-0.7987	7.33	1.38	-0.750			
0.6987	44717.34	3.3640	3.3640	-0.7785	7.34	1.39	-0.750			
0.7010	44865.80	3.3610	3.3610	-0.7584	7.36	1.41	-0.750			
0.7033	45009.57	3.3580	3.3579	-0.7401	7.38	1.43	-0.750			
0.7055	45149.35	3.3550	3.3554	-0.7205	7.39	1.44	-0.750			
0.7076	45285.87	3.3520	3.3520	-0.7042	7.41	1.46	-0.750			
0.7097	45419.83	3.3490	3.3489	-0.6879	7.42	1.47	-0.750			
0.7117	45549.41	3.3460	3.3460	-0.6701	7.44	1.49	-0.750			
0.7137	45676.05	3.3430	3.3430	-0.6599	7.45	1.50	-0.750			
0.7156	45801.43	3.3400	3.3400	-0.6449	7.46	1.51	-0.750			
