Ah_balance (normalized)	Ah_balance (mAh)	Voltage - fit (V)	Voltage -  interpolate (V)	dQ/dV (1/V)	Temperature (°C)	Temperature - diff (°C)	Current (C)	R_DC 0ms (mOhm)	R_DC 50ms (mOhm)	R_DC 50 ms PEC (mOhm)
0.0921	5895.73	4.0040	4.0033	-0.0501	6.00	0.01	-0.750			
0.0923	5909.19	4.0010	4.0006	-0.0850	6.00	0.01	-0.750			
0.0926	5928.93	3.9980	3.9978	-0.1147	6.00	0.01	-0.750			
0.0930	5953.62	3.9950	3.9950	-0.1425	6.00	0.01	-0.750			
0.0935	5983.69	3.9920	3.9920	-0.1700	5.99	0.00	-0.750			
0.0941	6019.32	3.9890	3.9890	-0.1944	5.99	0.00	-0.750			
0.0947	6060.43	3.9860	3.9860	-0.2198	5.99	0.00	-0.750			
0.0954	6105.05	3.9830	3.9830	-0.2428	5.99	0.00	-0.750			
0.0962	6153.75	3.9800	3.9800	-0.2653	5.99	0.00	-0.750			
0.0970	6206.89	3.9770	3.9770	-0.2881	5.99	-0.00	-0.750			
0.0979	6264.27	3.9740	3.9740	-0.3112	5.99	-0.00	-0.750			
0.0988	6326.04	3.9710	3.9710	-0.3338	5.99	-0.00	-0.750			
0.0999	6392.18	3.9680	3.9680	-0.3592	5.98	-0.01	-0.750			
0.1010	6463.59	3.9650	3.9651	-0.3831	5.98	-0.01	-0.750			
0.1022	6539.88	3.9620	3.9619	-0.4062	5.98	-0.01	-0.750			
0.1034	6620.27	3.9590	3.9590	-0.4287	5.98	-0.01	-0.750			
0.1048	6704.95	3.9560	3.9561	-0.4525	5.98	-0.01	-0.750			
0.1062	6794.88	3.9530	3.9530	-0.4704	5.97	-0.02	-0.750			
0.1076	6887.80	3.9500	3.9500	-0.4889	5.97	-0.02	-0.750			
0.1091	6982.43	3.9470	3.9472	-0.5090	5.97	-0.02	-0.750			
0.1107	7082.38	3.9440	3.9439	-0.5279	5.97	-0.02	-0.750			
0.1123	7185.63	3.9410	3.9409	-0.5440	5.97	-0.02	-0.750			
0.1139	7291.22	3.9380	3.9380	-0.5615	5.97	-0.02	-0.750			
0.1157	7401.75	3.9350	3.9351	-0.5807	5.97	-0.02	-0.750			
0.1174	7516.00	3.9320	3.9319	-0.5961	5.97	-0.02	-0.750			
0.1193	7632.40	3.9290	3.9289	-0.6060	5.97	-0.02	-0.750			
0.1211	7749.01	3.9260	3.9262	-0.6166	5.97	-0.02	-0.750			
0.1230	7869.62	3.9230	3.9230	-0.6290	5.97	-0.02	-0.750			
0.1249	7991.60	3.9200	3.9199	-0.6360	5.98	-0.01	-0.750			
0.1268	8112.90	3.9170	3.9170	-0.6439	5.98	-0.01	-0.750			
0.1287	8237.89	3.9140	3.9141	-0.6525	5.98	-0.01	-0.750			
0.1307	8366.50	3.9110	3.9109	-0.6594	5.98	-0.01	-0.750			
0.1327	8493.43	3.9080	3.9080	-0.6660	5.99	-0.00	-0.750			
0.1347	8620.55	3.9050	3.9051	-0.6738	5.99	0.00	-0.750			
0.1367	8751.10	3.9020	3.9020	-0.6815	5.99	0.00	-0.750			
0.1388	8882.81	3.8990	3.8989	-0.6870	5.99	0.00	-0.750			
0.1409	9015.74	3.8960	3.8961	-0.6902	5.99	0.00	-0.750			
0.1430	9149.06	3.8930	3.8930	-0.6946	5.99	0.00	-0.750			
0.1451	9283.73	3.8900	3.8899	-0.6957	5.99	0.00	-0.750			
0.1471	9416.54	3.8870	3.8871	-0.6953	5.99	0.00	-0.750			
0.1492	9549.59	3.8840	3.8840	-0.6991	6.00	0.01	-0.750			
0.1513	9683.58	3.8810	3.8811	-0.7071	6.01	0.02	-0.750			
0.1534	9820.19	3.8780	3.8779	-0.7076	6.01	0.02	-0.750			
0.1556	9957.76	3.8750	3.8750	-0.7117	6.02	0.03	-0.750			
0.1577	10094.94	3.8720	3.8720	-0.7121	6.03	0.04	-0.750			
0.1599	10232.12	3.8690	3.8690	-0.7127	6.03	0.04	-0.750			
0.1620	10368.13	3.8660	3.8660	-0.7132	6.04	0.05	-0.750			
0.1641	10504.10	3.8630	3.8630	-0.7174	6.05	0.06	-0.750			
0.1663	10641.69	3.8600	3.8600	-0.7174	6.05	0.06	-0.750			
0.1685	10781.66	3.8570	3.8570	-0.7231	6.06	0.07	-0.750			
0.1707	10921.72	3.8540	3.8540	-0.7229	6.07	0.08	-0.750			
0.1728	11060.46	3.8510	3.8510	-0.7224	6.07	0.08	-0.750			
0.1750	11198.01	3.8480	3.8480	-0.7234	6.08	0.09	-0.750			
0.1771	11336.36	3.8450	3.8450	-0.7257	6.08	0.09	-0.750			
0.1793	11475.49	3.8420	3.8420	-0.7267	6.08	0.09	-0.750			
0.1815	11617.22	3.8390	3.8389	-0.7257	6.09	0.10	-0.750			
0.1837	11757.47	3.8360	3.8361	-0.7256	6.09	0.10	-0.750			
0.1859	11896.41	3.8330	3.8330	-0.7275	6.10	0.11	-0.750			
0.1880	12035.17	3.8300	3.8300	-0.7253	6.11	0.12	-0.750			
0.1902	12173.63	3.8270	3.8269	-0.7288	6.12	0.13	-0.750			
0.1924	12313.18	3.8240	3.8241	-0.7303	6.13	0.14	-0.750			
0.1946	12455.57	3.8210	3.8210	-0.7341	6.14	0.15	-0.750			
0.1968	12596.97	3.8180	3.8181	-0.7360	6.15	0.16	-0.750			
0.1990	12738.33	3.8150	3.8151	-0.7347	6.16	0.17	-0.750			
0.2012	12878.98	3.8120	3.8120	-0.7325	6.17	0.18	-0.750			
0.2034	13019.83	3.8090	3.8089	-0.7322	6.17	0.18	-0.750			
0.2056	13160.28	3.8060	3.8061	-0.7301	6.18	0.19	-0.750			
0.2078	13300.06	3.8030	3.8030	-0.7309	6.19	0.20	-0.750			
0.2100	13440.64	3.8000	3.8000	-0.7331	6.19	0.20	-0.750			
0.2122	13580.46	3.7970	3.7970	-0.7344	6.20	0.21	-0.750			
0.2144	13720.55	3.7940	3.7940	-0.7419	6.21	0.22	-0.750			
0.2166	13863.79	3.7910	3.7910	-0.7470	6.21	0.22	-0.750			
0.2189	14008.65	3.7880	3.7879	-0.7519	6.22	0.23	-0.750			
0.2212	14155.69	3.7850	3.7851	-0.7528	6.23	0.24	-0.750			
0.2234	14299.85	3.7820	3.7820	-0.7507	6.24	0.25	-0.750			
0.2257	14444.50	3.7790	3.7790	-0.7503	6.24	0.25	-0.750			
0.2279	14587.10	3.7760	3.7760	-0.7548	6.25	0.26	-0.750			
0.2302	14730.31	3.7730	3.7729	-0.7537	6.26	0.27	-0.750			
0.2324	14876.16	3.7700	3.7700	-0.7603	6.26	0.27	-0.750			
0.2347	15022.82	3.7670	3.7671	-0.7641	6.27	0.28	-0.750			
0.2371	15172.51	3.7640	3.7640	-0.7695	6.28	0.29	-0.750			
0.2394	15319.55	3.7610	3.7610	-0.7710	6.29	0.30	-0.750			
0.2417	15466.78	3.7580	3.7580	-0.7688	6.29	0.30	-0.750			
0.2440	15614.53	3.7550	3.7550	-0.7728	6.30	0.31	-0.750			
0.2463	15763.07	3.7520	3.7520	-0.7785	6.31	0.32	-0.750			
0.2486	15912.45	3.7490	3.7490	-0.7830	6.32	0.33	-0.750			
0.2510	16063.04	3.7460	3.7459	-0.7908	6.32	0.33	-0.750			
0.2534	16215.60	3.7430	3.7430	-0.7984	6.33	0.34	-0.750			
0.2558	16369.70	3.7400	3.7401	-0.8032	6.34	0.35	-0.750			
0.2582	16526.57	3.7370	3.7369	-0.8096	6.35	0.36	-0.750			
0.2607	16681.99	3.7340	3.7340	-0.8126	6.36	0.37	-0.750			
0.2631	16837.59	3.7310	3.7310	-0.8179	6.36	0.37	-0.750			
0.2655	16994.96	3.7280	3.7280	-0.8242	6.37	0.38	-0.750			
0.2680	17154.12	3.7250	3.7249	-0.8276	6.38	0.39	-0.750			
0.2705	17313.74	3.7220	3.7220	-0.8331	6.39	0.40	-0.750			
0.2730	17474.74	3.7190	3.7189	-0.8376	6.39	0.40	-0.750			
0.2756	17639.38	3.7160	3.7160	-0.8264	6.40	0.41	-0.750			
0.2781	17795.24	3.7130	3.7130	-0.8189	6.41	0.42	-0.750			
0.2804	17948.58	3.7100	3.7102	-0.8155	6.42	0.43	-0.750			
0.2829	18102.48	3.7070	3.7069	-0.8227	6.43	0.44	-0.750			
0.2853	18260.53	3.7040	3.7039	-0.8348	6.43	0.44	-0.750			
0.2878	18421.90	3.7010	3.7009	-0.8516	6.44	0.45	-0.750			
0.2904	18587.17	3.6980	3.6982	-0.8721	6.44	0.45	-0.750			
0.2931	18761.04	3.6950	3.6949	-0.8906	6.44	0.45	-0.750			
0.2958	18932.85	3.6920	3.6919	-0.8942	6.45	0.46	-0.750			
0.2985	19103.96	3.6890	3.6890	-0.9023	6.46	0.47	-0.750			
0.3012	19277.97	3.6860	3.6861	-0.9108	6.47	0.48	-0.750			
0.3040	19454.96	3.6830	3.6829	-0.9199	6.47	0.48	-0.750			
0.3067	19630.77	3.6800	3.6800	-0.9304	6.48	0.49	-0.750			
0.3095	19810.95	3.6770	3.6772	-0.9379	6.49	0.50	-0.750			
0.3124	19994.04	3.6740	3.6740	-0.9480	6.50	0.51	-0.750			
0.3153	20178.69	3.6710	3.6709	-0.9538	6.50	0.51	-0.750			
0.3181	20361.11	3.6680	3.6680	-0.9565	6.50	0.51	-0.750			
0.3210	20545.62	3.6650	3.6652	-0.9618	6.51	0.52	-0.750			
0.3239	20729.08	3.6620	3.6619	-0.9735	6.51	0.52	-0.750			
0.3268	20916.56	3.6590	3.6590	-0.9755	6.52	0.53	-0.750			
0.3298	21105.33	3.6560	3.6559	-0.9848	6.52	0.53	-0.750			
0.3327	21294.14	3.6530	3.6530	-0.9955	6.53	0.54	-0.750			
0.3358	21489.20	3.6500	3.6500	-1.0026	6.53	0.54	-0.750			
0.3388	21682.09	3.6470	3.6469	-1.0083	6.54	0.55	-0.750			
0.3418	21876.21	3.6440	3.6440	-1.0120	6.54	0.55	-0.750			
0.3448	22069.14	3.6410	3.6410	-1.0185	6.55	0.56	-0.750			
0.3479	22265.70	3.6380	3.6380	-1.0428	6.55	0.56	-0.750			
0.3511	22467.28	3.6350	3.6349	-1.0454	6.56	0.57	-0.750			
0.3542	22669.13	3.6320	3.6319	-1.0531	6.56	0.57	-0.750			
0.3574	22873.69	3.6290	3.6290	-1.0631	6.57	0.58	-0.750			
0.3606	23079.99	3.6260	3.6259	-1.0777	6.57	0.58	-0.750			
0.3639	23288.52	3.6230	3.6229	-1.0827	6.58	0.59	-0.750			
0.3671	23495.33	3.6200	3.6199	-1.0856	6.58	0.59	-0.750			
0.3704	23702.95	3.6170	3.6172	-1.0849	6.59	0.60	-0.750			
0.3737	23915.44	3.6140	3.6139	-1.1078	6.59	0.60	-0.750			
0.3770	24128.67	3.6110	3.6109	-1.1124	6.59	0.60	-0.750			
0.3803	24341.97	3.6080	3.6080	-1.1176	6.59	0.60	-0.750			
0.3837	24555.25	3.6050	3.6053	-1.1239	6.59	0.60	-0.750			
0.3872	24778.47	3.6020	3.6019	-1.1416	6.60	0.61	-0.750			
0.3906	24997.75	3.5990	3.5989	-1.1467	6.61	0.62	-0.750			
0.3940	25214.94	3.5960	3.5960	-1.1624	6.62	0.63	-0.750			
0.3975	25439.83	3.5930	3.5932	-1.1829	6.63	0.64	-0.750			
0.4011	25669.63	3.5900	3.5897	-1.1950	6.64	0.65	-0.750			
0.4047	25900.72	3.5870	3.5869	-1.2027	6.64	0.65	-0.750			
0.4083	26132.33	3.5840	3.5842	-1.2076	6.65	0.66	-0.750	0.460	1.031	
0.4120	26369.33	3.5810	3.5809	-1.2297	6.65	0.66	-0.750			
0.4157	26604.05	3.5780	3.5779	-1.2331	6.66	0.67	-0.750			
0.4193	26837.82	3.5750	3.5750	-1.2344	6.67	0.68	-0.750			
0.4231	27078.19	3.5720	3.5721	-1.2505	6.67	0.68	-0.750			
0.4269	27322.87	3.5690	3.5690	-1.2684	6.67	0.68	-0.750			
0.4307	27566.94	3.5660	3.5660	-1.2783	6.68	0.69	-0.750			
0.4346	27811.65	3.5630	3.5630	-1.2860	6.68	0.69	-0.750			
0.4385	28061.62	3.5600	3.5600	-1.3012	6.68	0.69	-0.750			
0.4424	28312.02	3.5570	3.5570	-1.3152	6.69	0.70	-0.750			
0.4463	28565.49	3.5540	3.5541	-1.3394	6.69	0.70	-0.750			
0.4504	28825.86	3.5510	3.5509	-1.3543	6.70	0.71	-0.750			
0.4545	29087.55	3.5480	3.5480	-1.3605	6.70	0.71	-0.750			
0.4586	29351.06	3.5450	3.5451	-1.3740	6.71	0.72	-0.750			
0.4627	29615.96	3.5420	3.5420	-1.3826	6.72	0.73	-0.750			
0.4669	29881.53	3.5390	3.5389	-1.3996	6.72	0.73	-0.750			
0.4711	30150.21	3.5360	3.5361	-1.4177	6.73	0.74	-0.750			
0.4754	30425.12	3.5330	3.5329	-1.4208	6.74	0.75	-0.750			
0.4797	30702.16	3.5300	3.5300	-1.4458	6.74	0.75	-0.750			
0.4841	30981.76	3.5270	3.5272	-1.4555	6.75	0.76	-0.750			
0.4885	31262.45	3.5240	3.5240	-1.4582	6.75	0.76	-0.750			
0.4929	31543.23	3.5210	3.5209	-1.4679	6.76	0.77	-0.750			
0.4973	31824.91	3.5180	3.5181	-1.4717	6.76	0.77	-0.750			
0.5017	32109.76	3.5150	3.5150	-1.4835	6.77	0.78	-0.750			
0.5062	32394.82	3.5120	3.5120	-1.4890	6.78	0.79	-0.750			
0.5106	32676.82	3.5090	3.5090	-1.4903	6.79	0.80	-0.750			
0.5151	32968.80	3.5060	3.5060	-1.4958	6.80	0.81	-0.750			
0.5196	33256.23	3.5030	3.5029	-1.4969	6.81	0.82	-0.750			
0.5241	33543.73	3.5000	3.4998	-1.4940	6.82	0.83	-0.750			
0.5286	33832.31	3.4970	3.4971	-1.4928	6.83	0.84	-0.750			
0.5331	34117.66	3.4940	3.4940	-1.4916	6.85	0.86	-0.750			
0.5375	34401.56	3.4910	3.4910	-1.4954	6.86	0.87	-0.750			
0.5420	34685.48	3.4880	3.4880	-1.4989	6.86	0.87	-0.750			
0.5466	34980.25	3.4850	3.4851	-1.5118	6.87	0.88	-0.750			
0.5511	35270.45	3.4820	3.4821	-1.5089	6.88	0.89	-0.750			
0.5557	35563.88	3.4790	3.4790	-1.5143	6.90	0.91	-0.750			
0.5602	35855.43	3.4760	3.4760	-1.5020	6.91	0.92	-0.750			
0.5647	36142.99	3.4730	3.4729	-1.4905	6.93	0.94	-0.750			
0.5691	36424.66	3.4700	3.4700	-1.4819	6.94	0.95	-0.750			
0.5736	36710.12	3.4670	3.4670	-1.4747	6.96	0.97	-0.750			
0.5781	36995.62	3.4640	3.4639	-1.4735	6.97	0.98	-0.750			
0.5824	37275.09	3.4610	3.4610	-1.4580	6.99	1.00	-0.750			
0.5868	37554.66	3.4580	3.4580	-1.4521	7.00	1.01	-0.750			
0.5912	37836.31	3.4550	3.4549	-1.4436	7.01	1.02	-0.750			
0.5955	38110.82	3.4520	3.4520	-1.4331	7.03	1.04	-0.750			
0.5997	38383.33	3.4490	3.4490	-1.4200	7.04	1.05	-0.750			
0.6040	38658.46	3.4460	3.4460	-1.4123	7.05	1.06	-0.750			
0.6083	38928.16	3.4430	3.4430	-1.3963	7.07	1.08	-0.750			
0.6124	39194.94	3.4400	3.4400	-1.3755	7.08	1.09	-0.750			
0.6166	39460.70	3.4370	3.4370	-1.3559	7.09	1.10	-0.750			
0.6206	39718.31	3.4340	3.4340	-1.3402	7.11	1.12	-0.750			
0.6246	39973.01	3.4310	3.4309	-1.3066	7.12	1.13	-0.750			
0.6285	40222.48	3.4280	3.4280	-1.2823	7.14	1.15	-0.750			
0.6323	40465.81	3.4250	3.4250	-1.2559	7.16	1.17	-0.750			
0.6360	40704.14	3.4220	3.4220	-1.2319	7.18	1.19	-0.750			
0.6397	40939.99	3.4190	3.4189	-1.2093	7.20	1.21	-0.750			
0.6433	41168.71	3.4160	3.4160	-1.1819	7.21	1.22	-0.750			
0.6467	41390.03	3.4130	3.4132	-1.1616	7.23	1.24	-0.750			
0.6502	41615.25	3.4100	3.4099	-1.1441	7.24	1.25	-0.750			
0.6536	41832.92	3.4070	3.4069	-1.1176	7.25	1.26	-0.750			
0.6570	42045.88	3.4040	3.4040	-1.0894	7.26	1.27	-0.750			
0.6602	42253.76	3.4010	3.4010	-1.0666	7.28	1.29	-0.750			
0.6634	42455.28	3.3980	3.3980	-1.0360	7.29	1.30	-0.750			
0.6664	42650.04	3.3950	3.3950	-1.0075	7.31	1.32	-0.750			
0.6693	42837.92	3.3920	3.3920	-0.9792	7.32	1.33	-0.750			
0.6723	43026.74	3.3890	3.3890	-0.9599	7.34	1.35	-0.750			
0.6751	43209.13	3.3860	3.3860	-0.9362	7.35	1.36	-0.750			
0.6779	43387.01	3.3830	3.3830	-0.9091	7.37	1.38	-0.750			
0.6806	43558.53	3.3800	3.3800	-0.8823	7.39	1.40	-0.750			
0.6832	43724.97	3.3770	3.3771	-0.8586	7.41	1.42	-0.750			
0.6857	43886.71	3.3740	3.3739	-0.8356	7.42	1.43	-0.750			
0.6882	44044.19	3.3710	3.3709	-0.8104	7.43	1.44	-0.750			
0.6906	44197.63	3.3680	3.3680	-0.7900	7.44	1.45	-0.750			
0.6929	44346.39	3.3650	3.3651	-0.7714	7.45	1.46	-0.750			
0.6952	44493.80	3.3620	3.3620	-0.7565	7.46	1.47	-0.750			
0.6975	44636.97	3.3590	3.3589	-0.7385	7.48	1.49	-0.750			
0.6996	44776.53	3.3560	3.3560	-0.7175	7.49	1.50	-0.750			
0.7018	44912.31	3.3530	3.3530	-0.7048	7.50	1.51	-0.750			
0.7039	45047.60	3.3500	3.3500	-0.6876	7.52	1.53	-0.750			
0.7059	45177.51	3.3470	3.3469	-0.6671	7.53	1.54	-0.750			
0.7079	45303.34	3.3440	3.3440	-0.6472	7.54	1.55	-0.750			
0.7098	45425.86	3.3410	3.3410	-0.6302	7.56	1.57	-0.750			
0.7116	45544.83	3.3380	3.3380	-0.6144	7.57	1.58	-0.750			
0.7135	45661.40	3.3350	3.3350	-0.5984	7.58	1.59	-0.750			
0.7152	45772.79	3.3320	3.3320	-0.5822	7.59	1.60	-0.750			
0.7170	45884.87	3.3290	3.3290	-0.5712	7.60	1.61	-0.750			
0.7186	45993.02	3.3260	3.3260	-0.5581	7.61	1.62	-0.750			
0.7203	46098.95	3.3230	3.3230	-0.5457	7.62	1.63	-0.750			
