Ah_balance (normalized)	Ah_balance (mAh)	Voltage - fit (V)	Voltage -  interpolate (V)	dQ/dV (1/V)	Temperature (°C)	Temperature - diff (°C)	Current (C)	R_DC 0ms (mOhm)	R_DC 50ms (mOhm)	R_DC 50 ms PEC (mOhm)
0.0702	4494.16	3.9970	3.9968	-0.1078	5.98	0.01	-0.750			
0.0706	4518.20	3.9940	3.9939	-0.1353	5.98	0.01	-0.750			
0.0710	4546.75	3.9910	3.9909	-0.1598	5.98	0.01	-0.750			
0.0716	4579.79	3.9880	3.9880	-0.1838	5.98	0.01	-0.750			
0.0721	4617.33	3.9850	3.9851	-0.2081	5.98	0.01	-0.750			
0.0728	4659.92	3.9820	3.9820	-0.2318	5.98	0.01	-0.750			
0.0735	4706.42	3.9790	3.9790	-0.2555	5.98	0.01	-0.750			
0.0743	4757.67	3.9760	3.9760	-0.2810	5.98	0.01	-0.750			
0.0752	4813.59	3.9730	3.9730	-0.3062	5.97	0.00	-0.750			
0.0762	4875.12	3.9700	3.9700	-0.3317	5.97	0.00	-0.750			
0.0772	4941.05	3.9670	3.9671	-0.3583	5.97	0.00	-0.750			
0.0783	5012.25	3.9640	3.9640	-0.3845	5.97	-0.00	-0.750			
0.0795	5088.79	3.9610	3.9610	-0.4115	5.97	-0.00	-0.750			
0.0808	5170.36	3.9580	3.9579	-0.4365	5.96	-0.01	-0.750			
0.0821	5256.40	3.9550	3.9550	-0.4627	5.96	-0.01	-0.750			
0.0836	5347.74	3.9520	3.9521	-0.4901	5.96	-0.01	-0.750			
0.0851	5444.82	3.9490	3.9490	-0.5161	5.96	-0.01	-0.750			
0.0867	5546.51	3.9460	3.9459	-0.5414	5.96	-0.01	-0.750			
0.0883	5653.25	3.9430	3.9430	-0.5674	5.95	-0.02	-0.750			
0.0901	5765.39	3.9400	3.9401	-0.5892	5.95	-0.02	-0.750			
0.0919	5881.31	3.9370	3.9370	-0.6094	5.95	-0.02	-0.750			
0.0938	6000.30	3.9340	3.9340	-0.6286	5.95	-0.02	-0.750			
0.0957	6123.44	3.9310	3.9310	-0.6472	5.95	-0.02	-0.750			
0.0977	6250.62	3.9280	3.9280	-0.6634	5.95	-0.02	-0.750			
0.0997	6379.61	3.9250	3.9250	-0.6745	5.95	-0.02	-0.750			
0.1017	6511.24	3.9220	3.9220	-0.6855	5.95	-0.02	-0.750			
0.1038	6643.67	3.9190	3.9189	-0.6982	5.95	-0.02	-0.750			
0.1059	6777.93	3.9160	3.9160	-0.7076	5.95	-0.02	-0.750			
0.1080	6914.38	3.9130	3.9130	-0.7191	5.95	-0.02	-0.750			
0.1102	7053.38	3.9100	3.9100	-0.7286	5.95	-0.02	-0.750			
0.1125	7197.63	3.9070	3.9070	-0.7379	5.95	-0.02	-0.750			
0.1147	7340.09	3.9040	3.9042	-0.7424	5.95	-0.02	-0.750			
0.1169	7482.95	3.9010	3.9009	-0.7509	5.95	-0.02	-0.750			
0.1192	7626.55	3.8980	3.8980	-0.7536	5.95	-0.02	-0.750			
0.1214	7770.54	3.8950	3.8949	-0.7609	5.96	-0.01	-0.750			
0.1237	7917.43	3.8920	3.8921	-0.7704	5.96	-0.01	-0.750			
0.1261	8068.57	3.8890	3.8890	-0.7781	5.96	-0.01	-0.750			
0.1284	8219.15	3.8860	3.8860	-0.7820	5.96	-0.01	-0.750			
0.1308	8369.04	3.8830	3.8831	-0.7874	5.96	-0.01	-0.750			
0.1331	8520.63	3.8800	3.8800	-0.7890	5.96	-0.01	-0.750			
0.1355	8672.52	3.8770	3.8770	-0.7894	5.97	-0.00	-0.750			
0.1379	8824.74	3.8740	3.8739	-0.7922	5.97	-0.00	-0.750			
0.1403	8977.55	3.8710	3.8712	-0.7914	5.97	0.00	-0.750			
0.1427	9129.85	3.8680	3.8679	-0.7922	5.98	0.01	-0.750			
0.1450	9280.81	3.8650	3.8651	-0.7984	5.98	0.01	-0.750			
0.1474	9434.54	3.8620	3.8620	-0.7979	5.99	0.02	-0.750			
0.1498	9587.87	3.8590	3.8589	-0.8046	5.99	0.02	-0.750			
0.1522	9743.00	3.8560	3.8561	-0.8060	6.00	0.03	-0.750			
0.1547	9898.35	3.8530	3.8530	-0.8097	6.00	0.03	-0.750			
0.1571	10054.45	3.8500	3.8500	-0.8137	6.01	0.04	-0.750			
0.1595	10209.92	3.8470	3.8470	-0.8137	6.01	0.04	-0.750			
0.1620	10366.32	3.8440	3.8440	-0.8126	6.02	0.05	-0.750			
0.1644	10524.63	3.8410	3.8410	-0.8176	6.02	0.05	-0.750			
0.1669	10680.17	3.8380	3.8380	-0.8167	6.03	0.06	-0.750			
0.1693	10836.94	3.8350	3.8350	-0.8240	6.03	0.06	-0.750			
0.1718	10995.20	3.8320	3.8319	-0.8255	6.04	0.07	-0.750			
0.1743	11154.99	3.8290	3.8289	-0.8235	6.05	0.08	-0.750			
0.1768	11314.38	3.8260	3.8261	-0.8263	6.06	0.09	-0.750			
0.1793	11472.97	3.8230	3.8230	-0.8285	6.06	0.09	-0.750			
0.1817	11631.36	3.8200	3.8200	-0.8291	6.07	0.10	-0.750			
0.1842	11790.14	3.8170	3.8169	-0.8294	6.08	0.11	-0.750			
0.1867	11948.08	3.8140	3.8140	-0.8277	6.08	0.11	-0.750			
0.1892	12109.42	3.8110	3.8110	-0.8353	6.09	0.12	-0.750			
0.1917	12270.64	3.8080	3.8080	-0.8357	6.10	0.13	-0.750			
0.1942	12430.85	3.8050	3.8050	-0.8365	6.10	0.13	-0.750			
0.1967	12590.86	3.8020	3.8020	-0.8386	6.11	0.14	-0.750			
0.1992	12751.68	3.7990	3.7990	-0.8397	6.12	0.15	-0.750			
0.2018	12913.79	3.7960	3.7959	-0.8422	6.13	0.16	-0.750			
0.2043	13075.90	3.7930	3.7930	-0.8422	6.13	0.16	-0.750			
0.2068	13237.59	3.7900	3.7900	-0.8456	6.14	0.17	-0.750			
0.2094	13400.53	3.7870	3.7870	-0.8470	6.14	0.17	-0.750			
0.2119	13563.64	3.7840	3.7839	-0.8414	6.15	0.18	-0.750			
0.2145	13725.59	3.7810	3.7810	-0.8405	6.15	0.18	-0.750			
0.2170	13886.82	3.7780	3.7780	-0.8405	6.16	0.19	-0.750			
0.2195	14047.09	3.7750	3.7750	-0.8434	6.16	0.19	-0.750			
0.2220	14208.71	3.7720	3.7719	-0.8444	6.17	0.20	-0.750			
0.2245	14369.85	3.7690	3.7690	-0.8433	6.18	0.21	-0.750			
0.2271	14533.78	3.7660	3.7661	-0.8492	6.19	0.22	-0.750			
0.2297	14698.02	3.7630	3.7630	-0.8513	6.20	0.23	-0.750			
0.2322	14861.02	3.7600	3.7599	-0.8504	6.21	0.24	-0.750			
0.2348	15024.16	3.7570	3.7570	-0.8490	6.21	0.24	-0.750			
0.2373	15185.40	3.7540	3.7541	-0.8510	6.22	0.25	-0.750			
0.2399	15351.04	3.7510	3.7510	-0.8548	6.23	0.26	-0.750			
0.2424	15514.94	3.7480	3.7480	-0.8587	6.24	0.27	-0.750			
0.2450	15679.35	3.7450	3.7450	-0.8600	6.25	0.28	-0.750			
0.2476	15844.99	3.7420	3.7420	-0.8621	6.25	0.28	-0.750			
0.2502	16011.17	3.7390	3.7390	-0.8646	6.26	0.29	-0.750			
0.2528	16177.12	3.7360	3.7362	-0.8671	6.27	0.30	-0.750			
0.2554	16343.46	3.7330	3.7330	-0.8664	6.28	0.31	-0.750			
0.2580	16511.53	3.7300	3.7300	-0.8709	6.29	0.32	-0.750			
0.2606	16678.24	3.7270	3.7269	-0.8706	6.30	0.33	-0.750			
0.2632	16846.00	3.7240	3.7240	-0.8734	6.30	0.33	-0.750			
0.2658	17013.50	3.7210	3.7210	-0.8749	6.31	0.34	-0.750			
0.2685	17181.00	3.7180	3.7180	-0.8786	6.32	0.35	-0.750			
0.2711	17349.65	3.7150	3.7150	-0.8831	6.32	0.35	-0.750			
0.2737	17518.73	3.7120	3.7120	-0.8832	6.32	0.35	-0.750			
0.2764	17691.05	3.7090	3.7090	-0.8922	6.33	0.36	-0.750			
0.2791	17861.61	3.7060	3.7060	-0.8937	6.34	0.37	-0.750			
0.2818	18034.04	3.7030	3.7030	-0.8993	6.34	0.37	-0.750			
0.2845	18207.39	3.7000	3.6999	-0.9010	6.35	0.38	-0.750			
0.2872	18380.30	3.6970	3.6970	-0.9045	6.36	0.39	-0.750			
0.2899	18554.68	3.6940	3.6942	-0.9140	6.37	0.40	-0.750			
0.2926	18729.49	3.6910	3.6910	-0.9276	6.38	0.41	-0.750			
0.2955	18908.91	3.6880	3.6879	-0.9308	6.39	0.42	-0.750			
0.2982	19087.96	3.6850	3.6850	-0.9368	6.40	0.43	-0.750			
0.3011	19270.12	3.6820	3.6819	-0.9523	6.41	0.44	-0.750			
0.3039	19452.78	3.6790	3.6790	-0.9587	6.41	0.44	-0.750			
0.3068	19637.24	3.6760	3.6759	-0.9678	6.42	0.45	-0.750			
0.3097	19823.79	3.6730	3.6730	-0.9741	6.43	0.46	-0.750			
0.3127	20010.60	3.6700	3.6700	-0.9836	6.43	0.46	-0.750			
0.3157	20202.27	3.6670	3.6671	-1.0036	6.44	0.47	-0.750			
0.3187	20396.01	3.6640	3.6640	-1.0119	6.44	0.47	-0.750			
0.3217	20590.64	3.6610	3.6609	-1.0227	6.45	0.48	-0.750			
0.3248	20787.69	3.6580	3.6580	-1.0357	6.45	0.48	-0.750			
0.3279	20987.51	3.6550	3.6552	-1.0562	6.45	0.48	-0.750			
0.3311	21192.77	3.6520	3.6520	-1.0684	6.46	0.49	-0.750			
0.3344	21399.35	3.6490	3.6489	-1.0794	6.47	0.50	-0.750			
0.3376	21607.69	3.6460	3.6460	-1.0934	6.48	0.51	-0.750			
0.3409	21819.14	3.6430	3.6431	-1.1140	6.49	0.52	-0.750			
0.3443	22033.35	3.6400	3.6400	-1.1306	6.50	0.53	-0.750			
0.3477	22252.38	3.6370	3.6369	-1.1432	6.50	0.53	-0.750			
0.3511	22472.56	3.6340	3.6340	-1.1598	6.51	0.54	-0.750			
0.3547	22699.37	3.6310	3.6310	-1.1839	6.51	0.54	-0.750			
0.3583	22928.97	3.6280	3.6280	-1.1995	6.52	0.55	-0.750			
0.3619	23159.08	3.6250	3.6251	-1.2167	6.52	0.55	-0.750			
0.3655	23393.68	3.6220	3.6221	-1.2354	6.53	0.56	-0.750			
0.3693	23633.86	3.6190	3.6190	-1.2541	6.54	0.57	-0.750			
0.3731	23877.50	3.6160	3.6160	-1.2718	6.54	0.57	-0.750			
0.3769	24121.68	3.6130	3.6130	-1.2886	6.55	0.58	-0.750			
0.3808	24372.43	3.6100	3.6100	-1.3113	6.55	0.58	-0.750			
0.3848	24625.77	3.6070	3.6069	-1.3273	6.55	0.58	-0.750			
0.3888	24880.53	3.6040	3.6040	-1.3460	6.55	0.58	-0.750			
0.3928	25142.24	3.6010	3.6010	-1.3659	6.55	0.58	-0.750	0.481	1.148	
0.3970	25408.70	3.5980	3.5979	-1.3854	6.56	0.59	-0.750			
0.4012	25675.24	3.5950	3.5950	-1.4081	6.57	0.60	-0.750			
0.4054	25946.25	3.5920	3.5920	-1.4235	6.57	0.60	-0.750			
0.4097	26221.26	3.5890	3.5889	-1.4439	6.58	0.61	-0.750			
0.4141	26500.85	3.5860	3.5860	-1.4701	6.59	0.62	-0.750			
0.4185	26781.09	3.5830	3.5830	-1.5002	6.60	0.63	-0.750			
0.4230	27074.58	3.5800	3.5799	-1.5345	6.60	0.63	-0.750			
0.4277	27375.42	3.5770	3.5770	-1.5568	6.61	0.64	-0.750			
0.4324	27675.67	3.5740	3.5739	-1.5795	6.61	0.64	-0.750			
0.4373	27988.11	3.5710	3.5712	-1.6000	6.62	0.65	-0.750			
0.4421	28293.18	3.5680	3.5680	-1.6164	6.62	0.65	-0.750			
0.4470	28605.04	3.5650	3.5649	-1.6260	6.63	0.66	-0.750			
0.4518	28916.36	3.5620	3.5618	-1.6334	6.63	0.66	-0.750			
0.4567	29229.72	3.5590	3.5589	-1.6423	6.64	0.67	-0.750			
0.4617	29549.11	3.5560	3.5562	-1.6629	6.64	0.67	-0.750			
0.4667	29868.41	3.5530	3.5530	-1.6716	6.65	0.68	-0.750			
0.4717	30190.63	3.5500	3.5499	-1.6946	6.66	0.69	-0.750			
0.4769	30519.62	3.5470	3.5470	-1.6984	6.67	0.70	-0.750			
0.4821	30851.99	3.5440	3.5439	-1.7035	6.67	0.70	-0.750			
0.4871	31176.35	3.5410	3.5413	-1.7229	6.68	0.71	-0.750			
0.4923	31505.16	3.5380	3.5379	-1.7305	6.68	0.71	-0.750			
0.4974	31835.75	3.5350	3.5349	-1.7614	6.69	0.72	-0.750			
0.5027	32174.00	3.5320	3.5320	-1.7765	6.69	0.72	-0.750			
0.5082	32522.48	3.5290	3.5289	-1.8075	6.70	0.73	-0.750			
0.5137	32875.37	3.5260	3.5261	-1.8172	6.71	0.74	-0.750			
0.5192	33227.68	3.5230	3.5229	-1.8258	6.71	0.74	-0.750			
0.5246	33574.09	3.5200	3.5201	-1.8214	6.71	0.74	-0.750			
0.5301	33923.98	3.5170	3.5170	-1.8155	6.72	0.75	-0.750			
0.5355	34272.25	3.5140	3.5140	-1.8289	6.73	0.76	-0.750			
0.5410	34623.57	3.5110	3.5110	-1.8168	6.74	0.77	-0.750			
0.5465	34976.19	3.5080	3.5078	-1.8180	6.75	0.78	-0.750			
0.5519	35324.32	3.5050	3.5052	-1.8074	6.75	0.78	-0.750			
0.5574	35670.55	3.5020	3.5020	-1.7982	6.76	0.79	-0.750			
0.5627	36010.66	3.4990	3.4990	-1.7830	6.77	0.80	-0.750			
0.5680	36353.80	3.4960	3.4958	-1.7652	6.77	0.80	-0.750			
0.5733	36691.89	3.4930	3.4929	-1.7641	6.78	0.81	-0.750			
0.5787	37034.87	3.4900	3.4900	-1.7477	6.79	0.82	-0.750			
0.5839	37370.07	3.4870	3.4871	-1.7359	6.80	0.83	-0.750			
0.5891	37699.52	3.4840	3.4841	-1.7156	6.80	0.83	-0.750			
0.5942	38031.23	3.4810	3.4809	-1.6954	6.81	0.84	-0.750			
0.5993	38353.74	3.4780	3.4782	-1.6692	6.82	0.85	-0.750			
0.6043	38673.89	3.4750	3.4750	-1.6573	6.84	0.87	-0.750			
0.6092	38986.23	3.4720	3.4721	-1.6250	6.85	0.88	-0.750			
0.6140	39298.88	3.4690	3.4691	-1.6003	6.87	0.90	-0.750			
0.6188	39600.98	3.4660	3.4659	-1.5680	6.88	0.91	-0.750			
0.6235	39902.27	3.4630	3.4630	-1.5456	6.88	0.91	-0.750			
0.6281	40198.36	3.4600	3.4600	-1.5232	6.89	0.92	-0.750			
0.6326	40486.08	3.4570	3.4570	-1.4897	6.91	0.94	-0.750			
0.6370	40768.07	3.4540	3.4540	-1.4603	6.93	0.96	-0.750			
0.6414	41047.82	3.4510	3.4511	-1.4377	6.95	0.98	-0.750			
0.6457	41322.17	3.4480	3.4479	-1.4098	6.96	0.99	-0.750			
0.6498	41587.40	3.4450	3.4450	-1.3850	6.98	1.01	-0.750			
0.6539	41849.46	3.4420	3.4420	-1.3557	7.00	1.03	-0.750			
0.6580	42110.69	3.4390	3.4390	-1.3308	7.01	1.04	-0.750			
0.6620	42365.48	3.4360	3.4359	-1.2969	7.03	1.06	-0.750			
0.6658	42610.10	3.4330	3.4331	-1.2666	7.04	1.07	-0.750			
0.6696	42851.31	3.4300	3.4300	-1.2385	7.07	1.10	-0.750			
0.6732	43085.94	3.4270	3.4269	-1.2048	7.09	1.12	-0.750			
0.6768	43312.64	3.4240	3.4239	-1.1707	7.11	1.14	-0.750			
0.6802	43535.49	3.4210	3.4210	-1.1459	7.12	1.15	-0.750			
0.6836	43753.18	3.4180	3.4180	-1.1160	7.14	1.17	-0.750			
0.6870	43965.37	3.4150	3.4149	-1.0856	7.16	1.19	-0.750			
0.6901	44168.87	3.4120	3.4121	-1.0490	7.17	1.20	-0.750			
0.6933	44369.01	3.4090	3.4090	-1.0244	7.19	1.22	-0.750			
0.6963	44563.32	3.4060	3.4060	-0.9946	7.21	1.24	-0.750			
0.6992	44750.73	3.4030	3.4030	-0.9605	7.23	1.26	-0.750			
0.7021	44932.61	3.4000	3.4000	-0.9317	7.25	1.28	-0.750			
0.7048	45107.68	3.3970	3.3970	-0.9021	7.27	1.30	-0.750			
0.7075	45277.97	3.3940	3.3939	-0.8779	7.28	1.31	-0.750			
0.7101	45444.02	3.3910	3.3910	-0.8507	7.30	1.33	-0.750			
0.7126	45603.89	3.3880	3.3880	-0.8268	7.31	1.34	-0.750			
0.7150	45761.84	3.3850	3.3853	-0.7956	7.33	1.36	-0.750			
0.7173	45910.23	3.3820	3.3820	-0.7422	7.35	1.38	-0.750			
