Ah_balance (normalized)	Ah_balance (mAh)	Voltage - fit (V)	Voltage -  interpolate (V)	dQ/dV (1/V)	Temperature (°C)	Temperature - diff (°C)	Current (C)	R_DC 0ms (mOhm)	R_DC 50ms (mOhm)	R_DC 50 ms PEC (mOhm)
0.0936	5987.82	4.0030	4.0023	-0.0601	5.99	0.00	-0.750			
0.0938	6003.67	4.0000	3.9996	-0.0941	5.99	0.00	-0.750			
0.0941	6024.39	3.9970	3.9968	-0.1218	5.99	0.00	-0.750			
0.0945	6050.64	3.9940	3.9940	-0.1487	5.99	0.00	-0.750			
0.0950	6082.26	3.9910	3.9911	-0.1728	5.99	-0.00	-0.750			
0.0956	6117.86	3.9880	3.9881	-0.1975	5.99	-0.00	-0.750			
0.0962	6159.46	3.9850	3.9849	-0.2229	5.99	-0.00	-0.750			
0.0969	6204.22	3.9820	3.9821	-0.2458	5.99	-0.00	-0.750			
0.0977	6253.48	3.9790	3.9789	-0.2687	5.99	-0.00	-0.750			
0.0986	6307.48	3.9760	3.9761	-0.2921	5.98	-0.01	-0.750			
0.0995	6365.84	3.9730	3.9730	-0.3143	5.98	-0.01	-0.750			
0.1004	6428.46	3.9700	3.9700	-0.3361	5.98	-0.01	-0.750			
0.1015	6495.02	3.9670	3.9671	-0.3593	5.98	-0.01	-0.750			
0.1026	6565.53	3.9640	3.9640	-0.3838	5.98	-0.01	-0.750			
0.1038	6642.02	3.9610	3.9610	-0.4065	5.98	-0.01	-0.750			
0.1050	6723.17	3.9580	3.9580	-0.4264	5.97	-0.02	-0.750			
0.1064	6807.45	3.9550	3.9550	-0.4472	5.97	-0.02	-0.750			
0.1077	6895.07	3.9520	3.9522	-0.4664	5.97	-0.02	-0.750			
0.1092	6986.64	3.9490	3.9490	-0.4839	5.97	-0.02	-0.750			
0.1106	7080.26	3.9460	3.9460	-0.5018	5.96	-0.03	-0.750			
0.1122	7178.22	3.9430	3.9429	-0.5212	5.96	-0.03	-0.750			
0.1138	7280.54	3.9400	3.9401	-0.5403	5.96	-0.03	-0.750			
0.1154	7386.89	3.9370	3.9369	-0.5564	5.96	-0.03	-0.750			
0.1171	7495.95	3.9340	3.9340	-0.5716	5.95	-0.04	-0.750			
0.1189	7607.75	3.9310	3.9310	-0.5828	5.95	-0.04	-0.750			
0.1206	7721.12	3.9280	3.9280	-0.5946	5.95	-0.04	-0.750			
0.1224	7835.73	3.9250	3.9250	-0.6050	5.95	-0.04	-0.750			
0.1243	7953.00	3.9220	3.9219	-0.6130	5.95	-0.04	-0.750			
0.1261	8070.75	3.9190	3.9190	-0.6241	5.95	-0.04	-0.750			
0.1280	8192.44	3.9160	3.9160	-0.6338	5.95	-0.04	-0.750			
0.1299	8316.14	3.9130	3.9130	-0.6408	5.95	-0.04	-0.750			
0.1319	8440.30	3.9100	3.9100	-0.6471	5.95	-0.04	-0.750			
0.1338	8564.03	3.9070	3.9072	-0.6531	5.95	-0.04	-0.750			
0.1358	8689.46	3.9040	3.9039	-0.6601	5.96	-0.03	-0.750			
0.1378	8816.88	3.9010	3.9010	-0.6704	5.96	-0.03	-0.750			
0.1398	8946.28	3.8980	3.8980	-0.6722	5.96	-0.03	-0.750			
0.1418	9077.95	3.8950	3.8949	-0.6813	5.96	-0.03	-0.750			
0.1439	9209.65	3.8920	3.8920	-0.6837	5.97	-0.02	-0.750			
0.1459	9340.13	3.8890	3.8890	-0.6841	5.97	-0.02	-0.750			
0.1480	9471.35	3.8860	3.8860	-0.6854	5.97	-0.02	-0.750			
0.1500	9602.95	3.8830	3.8830	-0.6894	5.98	-0.01	-0.750			
0.1521	9735.44	3.8800	3.8800	-0.6872	5.98	-0.01	-0.750			
0.1542	9868.31	3.8770	3.8770	-0.6908	5.98	-0.01	-0.750			
0.1562	9999.90	3.8740	3.8741	-0.6964	5.99	-0.00	-0.750			
0.1584	10134.41	3.8710	3.8709	-0.6993	5.99	0.00	-0.750			
0.1605	10268.90	3.8680	3.8679	-0.7007	5.99	0.00	-0.750			
0.1626	10403.22	3.8650	3.8651	-0.7088	6.00	0.01	-0.750			
0.1647	10541.03	3.8620	3.8621	-0.7087	6.00	0.01	-0.750			
0.1669	10679.14	3.8590	3.8589	-0.7081	6.00	0.01	-0.750			
0.1690	10813.82	3.8560	3.8560	-0.7031	6.01	0.02	-0.750			
0.1710	10947.19	3.8530	3.8530	-0.7027	6.01	0.02	-0.750			
0.1732	11082.11	3.8500	3.8500	-0.7065	6.02	0.03	-0.750			
0.1753	11216.68	3.8470	3.8469	-0.7104	6.03	0.04	-0.750			
0.1774	11351.70	3.8440	3.8441	-0.7139	6.03	0.04	-0.750			
0.1796	11492.78	3.8410	3.8410	-0.7183	6.04	0.05	-0.750			
0.1818	11632.75	3.8380	3.8380	-0.7213	6.05	0.06	-0.750			
0.1839	11771.65	3.8350	3.8350	-0.7175	6.05	0.06	-0.750			
0.1861	11908.05	3.8320	3.8320	-0.7112	6.06	0.07	-0.750			
0.1882	12043.67	3.8290	3.8290	-0.7148	6.06	0.07	-0.750			
0.1903	12179.20	3.8260	3.8260	-0.7133	6.06	0.07	-0.750			
0.1924	12316.30	3.8230	3.8228	-0.7168	6.07	0.08	-0.750			
0.1946	12455.68	3.8200	3.8202	-0.7208	6.07	0.08	-0.750			
0.1968	12594.36	3.8170	3.8170	-0.7213	6.08	0.09	-0.750			
0.1990	12733.87	3.8140	3.8140	-0.7198	6.08	0.09	-0.750			
0.2011	12872.23	3.8110	3.8110	-0.7225	6.09	0.10	-0.750			
0.2033	13008.81	3.8080	3.8079	-0.7198	6.10	0.11	-0.750			
0.2054	13148.78	3.8050	3.8050	-0.7233	6.10	0.11	-0.750			
0.2076	13287.82	3.8020	3.8022	-0.7241	6.11	0.12	-0.750			
0.2098	13427.28	3.7990	3.7990	-0.7283	6.12	0.13	-0.750			
0.2120	13566.89	3.7960	3.7959	-0.7313	6.12	0.13	-0.750			
0.2142	13706.93	3.7930	3.7931	-0.7326	6.13	0.14	-0.750			
0.2164	13848.44	3.7900	3.7899	-0.7376	6.14	0.15	-0.750			
0.2186	13988.96	3.7870	3.7871	-0.7412	6.15	0.16	-0.750			
0.2208	14132.75	3.7840	3.7840	-0.7435	6.15	0.16	-0.750			
0.2231	14275.58	3.7810	3.7810	-0.7456	6.16	0.17	-0.750			
0.2253	14419.51	3.7780	3.7780	-0.7466	6.18	0.19	-0.750			
0.2276	14563.81	3.7750	3.7751	-0.7493	6.19	0.20	-0.750			
0.2298	14707.37	3.7720	3.7720	-0.7529	6.20	0.21	-0.750			
0.2321	14851.61	3.7690	3.7689	-0.7545	6.21	0.22	-0.750			
0.2343	14996.08	3.7660	3.7659	-0.7594	6.22	0.23	-0.750			
0.2366	15142.71	3.7630	3.7630	-0.7640	6.22	0.23	-0.750			
0.2389	15289.93	3.7600	3.7600	-0.7704	6.23	0.24	-0.750			
0.2412	15438.89	3.7570	3.7571	-0.7743	6.24	0.25	-0.750			
0.2436	15589.09	3.7540	3.7539	-0.7788	6.25	0.26	-0.750			
0.2459	15738.38	3.7510	3.7510	-0.7812	6.25	0.26	-0.750			
0.2482	15887.50	3.7480	3.7481	-0.7889	6.26	0.27	-0.750			
0.2506	16039.39	3.7450	3.7450	-0.7937	6.27	0.28	-0.750			
0.2530	16193.87	3.7420	3.7419	-0.7978	6.28	0.29	-0.750			
0.2554	16347.53	3.7390	3.7389	-0.7983	6.28	0.29	-0.750			
0.2578	16502.10	3.7360	3.7362	-0.8028	6.29	0.30	-0.750			
0.2602	16655.05	3.7330	3.7330	-0.8062	6.30	0.31	-0.750			
0.2627	16809.65	3.7300	3.7300	-0.8097	6.31	0.32	-0.750			
0.2651	16965.32	3.7270	3.7270	-0.8133	6.32	0.33	-0.750			
0.2675	17122.30	3.7240	3.7240	-0.8217	6.33	0.34	-0.750			
0.2700	17280.74	3.7210	3.7210	-0.8286	6.34	0.35	-0.750			
0.2725	17441.01	3.7180	3.7180	-0.8362	6.35	0.36	-0.750			
0.2750	17601.76	3.7150	3.7149	-0.8415	6.36	0.37	-0.750			
0.2776	17763.48	3.7120	3.7120	-0.8460	6.37	0.38	-0.750			
0.2801	17927.70	3.7090	3.7090	-0.8544	6.38	0.39	-0.750			
0.2827	18091.96	3.7060	3.7060	-0.8601	6.39	0.40	-0.750			
0.2853	18256.96	3.7030	3.7030	-0.8695	6.40	0.41	-0.750			
0.2879	18424.39	3.7000	3.7000	-0.8735	6.41	0.42	-0.750			
0.2905	18593.97	3.6970	3.6969	-0.8746	6.42	0.43	-0.750			
0.2931	18759.43	3.6940	3.6941	-0.8968	6.42	0.43	-0.750			
0.2958	18932.36	3.6910	3.6912	-0.9136	6.43	0.44	-0.750			
0.2986	19110.91	3.6880	3.6878	-0.9302	6.44	0.45	-0.750			
0.3014	19292.66	3.6850	3.6850	-0.9404	6.44	0.45	-0.750			
0.3043	19476.31	3.6820	3.6821	-0.9432	6.44	0.45	-0.750			
0.3072	19660.27	3.6790	3.6792	-0.9459	6.45	0.46	-0.750			
0.3100	19842.69	3.6760	3.6759	-0.9487	6.45	0.46	-0.750			
0.3128	20018.71	3.6730	3.6729	-0.9375	6.46	0.47	-0.750			
0.3156	20199.08	3.6700	3.6700	-0.9402	6.46	0.47	-0.750			
0.3184	20379.82	3.6670	3.6670	-0.9456	6.47	0.48	-0.750			
0.3213	20563.02	3.6640	3.6640	-0.9576	6.47	0.48	-0.750			
0.3242	20747.45	3.6610	3.6610	-0.9685	6.48	0.49	-0.750			
0.3271	20934.17	3.6580	3.6579	-0.9716	6.49	0.50	-0.750			
0.3300	21121.29	3.6550	3.6550	-0.9793	6.50	0.51	-0.750			
0.3330	21311.62	3.6520	3.6521	-0.9869	6.51	0.52	-0.750			
0.3360	21501.68	3.6490	3.6488	-0.9958	6.52	0.53	-0.750			
0.3389	21692.59	3.6460	3.6460	-0.9997	6.52	0.53	-0.750			
0.3419	21883.09	3.6430	3.6430	-1.0058	6.53	0.54	-0.750			
0.3450	22078.69	3.6400	3.6401	-1.0182	6.53	0.54	-0.750			
0.3481	22275.74	3.6370	3.6370	-1.0264	6.53	0.54	-0.750			
0.3511	22472.83	3.6340	3.6339	-1.0312	6.53	0.54	-0.750			
0.3543	22672.16	3.6310	3.6310	-1.0358	6.54	0.55	-0.750			
0.3574	22871.88	3.6280	3.6280	-1.0432	6.54	0.55	-0.750			
0.3605	23071.82	3.6250	3.6250	-1.0561	6.54	0.55	-0.750			
0.3637	23274.92	3.6220	3.6219	-1.0608	6.54	0.55	-0.750			
0.3669	23480.11	3.6190	3.6189	-1.0714	6.55	0.56	-0.750			
0.3701	23685.67	3.6160	3.6162	-1.0847	6.55	0.56	-0.750			
0.3734	23895.65	3.6130	3.6130	-1.0952	6.56	0.57	-0.750			
0.3767	24109.17	3.6100	3.6099	-1.0966	6.56	0.57	-0.750			
0.3800	24319.77	3.6070	3.6070	-1.0967	6.57	0.58	-0.750			
0.3833	24529.83	3.6040	3.6042	-1.1089	6.57	0.58	-0.750			
0.3866	24743.26	3.6010	3.6009	-1.1156	6.57	0.58	-0.750			
0.3899	24956.49	3.5980	3.5979	-1.1199	6.57	0.58	-0.750			
0.3933	25171.12	3.5950	3.5950	-1.1355	6.57	0.58	-0.750			
0.3968	25392.21	3.5920	3.5919	-1.1534	6.57	0.58	-0.750			
0.4003	25617.24	3.5890	3.5889	-1.1632	6.57	0.58	-0.750			
0.4038	25841.61	3.5860	3.5860	-1.1702	6.57	0.58	-0.750	0.447	1.027	
0.4073	26067.03	3.5830	3.5831	-1.1710	6.57	0.58	-0.750			
0.4108	26293.08	3.5800	3.5799	-1.1846	6.57	0.58	-0.750			
0.4144	26519.18	3.5770	3.5770	-1.1892	6.58	0.59	-0.750			
0.4179	26743.18	3.5740	3.5740	-1.2103	6.58	0.59	-0.750			
0.4215	26978.73	3.5710	3.5710	-1.2270	6.58	0.59	-0.750			
0.4253	27220.14	3.5680	3.5679	-1.2385	6.58	0.59	-0.750			
0.4291	27459.57	3.5650	3.5650	-1.2470	6.59	0.60	-0.750			
0.4328	27700.65	3.5620	3.5623	-1.2626	6.59	0.60	-0.750			
0.4366	27944.93	3.5590	3.5590	-1.2711	6.59	0.60	-0.750			
0.4405	28189.53	3.5560	3.5558	-1.2741	6.59	0.60	-0.750			
0.4443	28432.74	3.5530	3.5530	-1.2763	6.59	0.60	-0.750			
0.4481	28680.11	3.5500	3.5500	-1.2976	6.59	0.60	-0.750			
0.4520	28928.91	3.5470	3.5469	-1.3101	6.59	0.60	-0.750			
0.4559	29177.91	3.5440	3.5440	-1.3300	6.59	0.60	-0.750			
0.4599	29436.43	3.5410	3.5411	-1.3403	6.59	0.60	-0.750			
0.4644	29721.65	3.5380	3.5377	-1.2776	6.60	0.61	-0.750			
0.4684	29975.11	3.5350	3.5348	-1.1462	6.61	0.62	-0.750			
0.4718	30196.72	3.5320	3.5324	-1.0501	6.61	0.62	-0.750			
0.4746	30376.58	3.5290	3.5302	-0.9939	6.61	0.62	-0.750			
0.4768	30513.44	3.5260	3.5245	-1.0087	6.61	0.62	-0.750			
0.4793	30678.35	3.5230	3.5224	-1.0815	6.61	0.62	-0.750			
0.4829	30902.48	3.5200	3.5201	-1.1835	6.61	0.62	-0.750			
0.4867	31149.66	3.5170	3.5175	-1.2963	6.61	0.62	-0.750			
0.4912	31435.85	3.5140	3.5139	-1.4290	6.61	0.62	-0.750			
0.4960	31743.03	3.5110	3.5105	-1.4603	6.61	0.62	-0.750			
0.5005	32033.69	3.5080	3.5073	-1.4447	6.62	0.63	-0.750			
0.5048	32309.41	3.5050	3.5056	-1.4366	6.63	0.64	-0.750			
0.5090	32579.07	3.5020	3.5020	-1.4084	6.63	0.64	-0.750			
0.5133	32853.17	3.4990	3.4987	-1.4264	6.64	0.65	-0.750			
0.5174	33113.55	3.4960	3.4964	-1.4263	6.65	0.66	-0.750			
0.5218	33392.67	3.4930	3.4928	-1.4647	6.65	0.66	-0.750			
0.5263	33681.62	3.4900	3.4899	-1.4616	6.66	0.67	-0.750			
0.5307	33962.96	3.4870	3.4869	-1.4677	6.67	0.68	-0.750			
0.5351	34246.18	3.4840	3.4840	-1.4484	6.67	0.68	-0.750			
0.5395	34525.01	3.4810	3.4807	-1.4573	6.68	0.69	-0.750			
0.5437	34793.61	3.4780	3.4776	-1.4569	6.69	0.70	-0.750			
0.5481	35076.51	3.4750	3.4748	-1.4436	6.69	0.70	-0.750			
0.5524	35356.30	3.4720	3.4724	-1.4716	6.70	0.71	-0.750			
0.5571	35651.31	3.4690	3.4693	-1.4974	6.71	0.72	-0.750			
0.5617	35946.93	3.4660	3.4657	-1.4912	6.72	0.73	-0.750			
0.5660	36226.22	3.4630	3.4628	-1.4933	6.72	0.73	-0.750			
0.5706	36515.21	3.4600	3.4603	-1.4758	6.73	0.74	-0.750			
0.5750	36799.51	3.4570	3.4567	-1.4690	6.75	0.76	-0.750			
0.5794	37079.36	3.4540	3.4542	-1.4487	6.76	0.77	-0.750			
0.5835	37347.17	3.4510	3.4513	-1.4076	6.77	0.78	-0.750			
0.5879	37628.31	3.4480	3.4475	-1.4055	6.79	0.80	-0.750			
0.5920	37889.75	3.4450	3.4448	-1.3935	6.80	0.81	-0.750			
0.5962	38156.16	3.4420	3.4419	-1.3863	6.81	0.82	-0.750			
0.6004	38423.14	3.4390	3.4388	-1.3778	6.83	0.84	-0.750			
0.6044	38683.81	3.4360	3.4355	-1.3632	6.84	0.85	-0.750			
0.6086	38948.63	3.4330	3.4331	-1.3461	6.86	0.87	-0.750			
0.6126	39207.83	3.4300	3.4298	-1.3258	6.87	0.88	-0.750			
0.6165	39457.93	3.4270	3.4267	-1.2962	6.89	0.90	-0.750			
0.6202	39695.43	3.4240	3.4248	-1.2741	6.91	0.92	-0.750			
0.6242	39951.24	3.4210	3.4209	-1.2771	6.93	0.94	-0.750			
0.6281	40198.02	3.4180	3.4179	-1.2337	6.94	0.95	-0.750			
0.6318	40434.19	3.4150	3.4152	-1.1704	6.96	0.97	-0.750			
0.6353	40659.43	3.4120	3.4120	-1.1451	6.97	0.98	-0.750			
0.6386	40869.32	3.4090	3.4093	-1.1008	6.98	0.99	-0.750			
0.6417	41067.87	3.4060	3.4056	-1.0896	7.00	1.01	-0.750			
0.6448	41266.61	3.4030	3.4030	-1.0892	7.01	1.02	-0.750			
0.6481	41480.46	3.4000	3.3997	-1.0798	7.03	1.04	-0.750			
0.6514	41691.98	3.3970	3.3967	-1.0712	7.04	1.05	-0.750			
0.6548	41907.14	3.3940	3.3939	-1.0606	7.06	1.07	-0.750			
0.6580	42110.62	3.3910	3.3912	-1.0361	7.07	1.08	-0.750			
0.6610	42303.98	3.3880	3.3878	-1.0073	7.09	1.10	-0.750			
0.6638	42486.31	3.3850	3.3849	-0.9667	7.10	1.11	-0.750			
0.6667	42670.08	3.3820	3.3820	-0.9431	7.11	1.12	-0.750			
0.6696	42854.29	3.3790	3.3788	-0.9374	7.13	1.14	-0.750			
0.6724	43031.61	3.3760	3.3760	-0.9230	7.15	1.16	-0.750			
0.6751	43205.79	3.3730	3.3729	-0.9048	7.16	1.17	-0.750			
0.6778	43377.40	3.3700	3.3699	-0.8860	7.18	1.19	-0.750			
0.6805	43550.17	3.3670	3.3667	-0.8576	7.20	1.21	-0.750			
0.6830	43713.51	3.3640	3.3630	-0.8323	7.21	1.22	-0.750			
0.6855	43874.01	3.3610	3.3606	-0.8014	7.23	1.24	-0.750			
0.6878	44020.67	3.3580	3.3576	-0.7743	7.24	1.25	-0.750			
0.6900	44159.88	3.3550	3.3552	-0.7487	7.25	1.26	-0.750			
0.6923	44305.63	3.3520	3.3517	-0.7338	7.27	1.28	-0.750			
0.6944	44443.38	3.3490	3.3487	-0.7125	7.28	1.29	-0.750			
0.6965	44579.17	3.3460	3.3458	-0.7254	7.29	1.30	-0.750			
0.6987	44716.50	3.3430	3.3428	-0.7140	7.31	1.32	-0.750			
0.7009	44859.46	3.3400	3.3394	-0.7042	7.32	1.33	-0.750			
0.7031	44995.84	3.3370	3.3370	-0.6873	7.34	1.35	-0.750			
0.7051	45125.54	3.3340	3.3330	-0.6666	7.35	1.36	-0.750			
0.7070	45249.60	3.3310	3.3299	-0.6388	7.37	1.38	-0.750			
0.7089	45371.13	3.3280	3.3268	-0.6045	7.38	1.39	-0.750			
0.7107	45485.17	3.3250	3.3236	-0.5929	7.39	1.40	-0.750			
