Ah_balance (normalized)	Ah_balance (mAh)	Voltage - fit (V)	Voltage -  interpolate (V)	dQ/dV (1/V)	Temperature (°C)	Temperature - diff (°C)	Current (C)	R_DC 0ms (mOhm)	R_DC 50ms (mOhm)	R_DC 50 ms PEC (mOhm)
0.0942	6025.85	4.0040	4.0035	-0.0870	6.01	0.02	-0.750			
0.0945	6045.39	4.0010	4.0007	-0.1165	6.01	0.02	-0.750			
0.0949	6071.29	3.9980	3.9978	-0.1448	6.00	0.01	-0.750			
0.0953	6101.87	3.9950	3.9951	-0.1718	6.00	0.01	-0.750			
0.0959	6137.86	3.9920	3.9921	-0.1975	6.00	0.01	-0.750			
0.0965	6178.27	3.9890	3.9890	-0.2235	6.00	0.01	-0.750			
0.0973	6224.86	3.9860	3.9860	-0.2460	6.00	0.01	-0.750			
0.0980	6273.88	3.9830	3.9831	-0.2707	5.99	0.00	-0.750			
0.0989	6328.54	3.9800	3.9800	-0.2945	5.99	0.00	-0.750			
0.0998	6387.50	3.9770	3.9770	-0.3175	5.99	-0.00	-0.750			
0.1008	6450.03	3.9740	3.9739	-0.3401	5.99	-0.00	-0.750			
0.1018	6517.22	3.9710	3.9712	-0.3649	5.98	-0.01	-0.750			
0.1030	6589.04	3.9680	3.9679	-0.3927	5.98	-0.01	-0.750			
0.1042	6667.09	3.9650	3.9649	-0.4201	5.97	-0.02	-0.750			
0.1055	6749.31	3.9620	3.9621	-0.4467	5.97	-0.02	-0.750			
0.1069	6839.38	3.9590	3.9590	-0.4730	5.97	-0.02	-0.750			
0.1084	6935.09	3.9560	3.9560	-0.4980	5.96	-0.03	-0.750			
0.1099	7032.80	3.9530	3.9530	-0.5198	5.96	-0.03	-0.750			
0.1115	7134.14	3.9500	3.9500	-0.5378	5.95	-0.04	-0.750			
0.1131	7238.68	3.9470	3.9470	-0.5567	5.95	-0.04	-0.750			
0.1148	7347.74	3.9440	3.9440	-0.5761	5.95	-0.04	-0.750			
0.1166	7460.22	3.9410	3.9411	-0.5925	5.95	-0.04	-0.750			
0.1184	7576.20	3.9380	3.9380	-0.6138	5.94	-0.05	-0.750			
0.1203	7696.85	3.9350	3.9350	-0.6319	5.94	-0.05	-0.750			
0.1222	7819.66	3.9320	3.9319	-0.6441	5.94	-0.05	-0.750			
0.1242	7946.26	3.9290	3.9290	-0.6563	5.94	-0.05	-0.750			
0.1262	8073.80	3.9260	3.9260	-0.6630	5.94	-0.05	-0.750			
0.1282	8202.53	3.9230	3.9230	-0.6702	5.94	-0.05	-0.750			
0.1302	8330.57	3.9200	3.9200	-0.6812	5.94	-0.05	-0.750			
0.1322	8460.53	3.9170	3.9170	-0.6906	5.95	-0.04	-0.750			
0.1343	8594.21	3.9140	3.9139	-0.7028	5.95	-0.04	-0.750			
0.1364	8731.92	3.9110	3.9109	-0.7071	5.95	-0.04	-0.750			
0.1386	8871.02	3.9080	3.9080	-0.7128	5.95	-0.04	-0.750			
0.1407	9007.29	3.9050	3.9050	-0.7192	5.95	-0.04	-0.750			
0.1429	9146.23	3.9020	3.9021	-0.7283	5.95	-0.04	-0.750			
0.1451	9286.20	3.8990	3.8989	-0.7314	5.95	-0.04	-0.750			
0.1473	9427.82	3.8960	3.8958	-0.7369	5.95	-0.04	-0.750			
0.1495	9569.97	3.8930	3.8934	-0.7418	5.95	-0.04	-0.750			
0.1518	9715.51	3.8900	3.8900	-0.7496	5.95	-0.04	-0.750			
0.1540	9856.86	3.8870	3.8869	-0.7541	5.96	-0.03	-0.750			
0.1563	10000.03	3.8840	3.8839	-0.7508	5.96	-0.03	-0.750			
0.1586	10147.58	3.8810	3.8810	-0.7631	5.96	-0.03	-0.750			
0.1608	10293.59	3.8780	3.8780	-0.7631	5.97	-0.02	-0.750			
0.1632	10441.77	3.8750	3.8749	-0.7665	5.97	-0.02	-0.750			
0.1655	10588.82	3.8720	3.8720	-0.7686	5.98	-0.01	-0.750			
0.1678	10736.14	3.8690	3.8689	-0.7662	5.98	-0.01	-0.750			
0.1700	10882.33	3.8660	3.8660	-0.7635	5.98	-0.01	-0.750			
0.1724	11031.37	3.8630	3.8630	-0.7638	5.99	-0.00	-0.750			
0.1746	11176.03	3.8600	3.8603	-0.7652	5.99	0.00	-0.750			
0.1769	11322.47	3.8570	3.8570	-0.7689	5.99	0.00	-0.750			
0.1792	11469.14	3.8540	3.8540	-0.7734	6.00	0.01	-0.750			
0.1815	11618.35	3.8510	3.8509	-0.7780	6.00	0.01	-0.750			
0.1839	11770.24	3.8480	3.8480	-0.7815	6.01	0.02	-0.750			
0.1863	11920.23	3.8450	3.8451	-0.7836	6.01	0.02	-0.750			
0.1886	12070.98	3.8420	3.8420	-0.7887	6.01	0.02	-0.750			
0.1909	12220.21	3.8390	3.8389	-0.7941	6.02	0.03	-0.750			
0.1933	12373.50	3.8360	3.8359	-0.7899	6.02	0.03	-0.750			
0.1957	12525.90	3.8330	3.8330	-0.7913	6.02	0.03	-0.750			
0.1981	12680.16	3.8300	3.8301	-0.7932	6.03	0.04	-0.750			
0.2005	12832.45	3.8270	3.8269	-0.7912	6.03	0.04	-0.750			
0.2028	12980.46	3.8240	3.8240	-0.7922	6.04	0.05	-0.750			
0.2052	13132.83	3.8210	3.8209	-0.7934	6.04	0.05	-0.750			
0.2076	13284.97	3.8180	3.8180	-0.7881	6.04	0.05	-0.750			
0.2100	13439.98	3.8150	3.8148	-0.7884	6.05	0.06	-0.750			
0.2124	13590.84	3.8120	3.8123	-0.7900	6.05	0.06	-0.750			
0.2147	13742.11	3.8090	3.8089	-0.7893	6.06	0.07	-0.750			
0.2171	13892.05	3.8060	3.8059	-0.7880	6.07	0.08	-0.750			
0.2194	14042.74	3.8030	3.8031	-0.7890	6.07	0.08	-0.750			
0.2218	14195.26	3.8000	3.8000	-0.7956	6.08	0.09	-0.750			
0.2242	14349.07	3.7970	3.7970	-0.7962	6.09	0.10	-0.750			
0.2266	14502.41	3.7940	3.7939	-0.7970	6.09	0.10	-0.750			
0.2290	14653.40	3.7910	3.7911	-0.7957	6.10	0.11	-0.750			
0.2314	14807.51	3.7880	3.7880	-0.7949	6.10	0.11	-0.750			
0.2337	14958.99	3.7850	3.7850	-0.8007	6.10	0.11	-0.750			
0.2361	15112.96	3.7820	3.7820	-0.8028	6.11	0.12	-0.750			
0.2386	15267.37	3.7790	3.7791	-0.8042	6.12	0.13	-0.750			
0.2410	15422.78	3.7760	3.7760	-0.8102	6.12	0.13	-0.750			
0.2434	15579.40	3.7730	3.7731	-0.8088	6.13	0.14	-0.750			
0.2459	15735.78	3.7700	3.7699	-0.8033	6.14	0.15	-0.750			
0.2483	15889.71	3.7670	3.7669	-0.8070	6.15	0.16	-0.750			
0.2507	16042.58	3.7640	3.7641	-0.8024	6.15	0.16	-0.750			
0.2531	16196.02	3.7610	3.7609	-0.8091	6.16	0.17	-0.750			
0.2555	16353.31	3.7580	3.7580	-0.8095	6.16	0.17	-0.750			
0.2579	16508.34	3.7550	3.7550	-0.8043	6.16	0.17	-0.750			
0.2604	16664.70	3.7520	3.7521	-0.8116	6.17	0.18	-0.750			
0.2628	16821.88	3.7490	3.7491	-0.8138	6.17	0.18	-0.750			
0.2652	16974.99	3.7460	3.7459	-0.8153	6.18	0.19	-0.750			
0.2677	17132.00	3.7430	3.7430	-0.8111	6.18	0.19	-0.750			
0.2701	17287.85	3.7400	3.7400	-0.8117	6.18	0.19	-0.750			
0.2726	17443.54	3.7370	3.7370	-0.8187	6.19	0.20	-0.750			
0.2750	17601.27	3.7340	3.7340	-0.8229	6.19	0.20	-0.750			
0.2775	17757.48	3.7310	3.7310	-0.8267	6.20	0.21	-0.750			
0.2800	17920.43	3.7280	3.7279	-0.8300	6.21	0.22	-0.750			
0.2825	18080.66	3.7250	3.7250	-0.8302	6.22	0.23	-0.750			
0.2850	18242.96	3.7220	3.7220	-0.8381	6.22	0.23	-0.750			
0.2875	18401.26	3.7190	3.7191	-0.8401	6.23	0.24	-0.750			
0.2900	18561.05	3.7160	3.7158	-0.8403	6.23	0.24	-0.750			
0.2925	18723.11	3.7130	3.7129	-0.8457	6.24	0.25	-0.750			
0.2951	18885.82	3.7100	3.7100	-0.8461	6.24	0.25	-0.750			
0.2977	19050.30	3.7070	3.7071	-0.8631	6.25	0.26	-0.750			
0.3002	19215.88	3.7040	3.7040	-0.8704	6.25	0.26	-0.750			
0.3028	19380.77	3.7010	3.7010	-0.8791	6.26	0.27	-0.750			
0.3055	19551.02	3.6980	3.6979	-0.8909	6.26	0.27	-0.750			
0.3082	19723.74	3.6950	3.6950	-0.9031	6.26	0.27	-0.750			
0.3109	19900.52	3.6920	3.6921	-0.9187	6.27	0.28	-0.750			
0.3137	20078.58	3.6890	3.6889	-0.9319	6.27	0.28	-0.750			
0.3165	20257.27	3.6860	3.6859	-0.9308	6.28	0.29	-0.750			
0.3193	20436.03	3.6830	3.6830	-0.9368	6.28	0.29	-0.750			
0.3221	20615.19	3.6800	3.6801	-0.9437	6.29	0.30	-0.750			
0.3250	20800.66	3.6770	3.6770	-0.9503	6.29	0.30	-0.750			
0.3278	20981.97	3.6740	3.6740	-0.9578	6.30	0.31	-0.750			
0.3307	21164.97	3.6710	3.6710	-0.9653	6.30	0.31	-0.750			
0.3336	21351.15	3.6680	3.6679	-0.9767	6.30	0.31	-0.750			
0.3366	21542.13	3.6650	3.6650	-0.9837	6.31	0.32	-0.750			
0.3395	21729.73	3.6620	3.6620	-0.9996	6.31	0.32	-0.750			
0.3425	21922.47	3.6590	3.6591	-1.0149	6.31	0.32	-0.750			
0.3456	22120.30	3.6560	3.6559	-1.0262	6.31	0.32	-0.750			
0.3487	22316.25	3.6530	3.6529	-1.0374	6.31	0.32	-0.750			
0.3519	22518.43	3.6500	3.6500	-1.0577	6.32	0.33	-0.750			
0.3551	22723.51	3.6470	3.6469	-1.0740	6.32	0.33	-0.750			
0.3583	22933.48	3.6440	3.6439	-1.0880	6.33	0.34	-0.750			
0.3616	23141.49	3.6410	3.6412	-1.0886	6.34	0.35	-0.750			
0.3649	23353.70	3.6380	3.6380	-1.1062	6.34	0.35	-0.750			
0.3682	23567.58	3.6350	3.6350	-1.1194	6.35	0.36	-0.750			
0.3716	23781.89	3.6320	3.6319	-1.1234	6.35	0.36	-0.750			
0.3750	23997.96	3.6290	3.6291	-1.1411	6.35	0.36	-0.750			
0.3785	24221.09	3.6260	3.6260	-1.1556	6.36	0.37	-0.750			
0.3820	24444.85	3.6230	3.6229	-1.1683	6.36	0.37	-0.750			
0.3855	24670.97	3.6200	3.6200	-1.1800	6.37	0.38	-0.750			
0.3890	24898.74	3.6170	3.6169	-1.1969	6.37	0.38	-0.750			
0.3926	25127.67	3.6140	3.6140	-1.2117	6.38	0.39	-0.750			
0.3963	25362.17	3.6110	3.6110	-1.2254	6.39	0.40	-0.750			
0.3999	25596.54	3.6080	3.6082	-1.2456	6.39	0.40	-0.750			
0.4038	25842.99	3.6050	3.6049	-1.2631	6.39	0.40	-0.750			
0.4076	26086.53	3.6020	3.6020	-1.2757	6.40	0.41	-0.750			
0.4114	26332.51	3.5990	3.5990	-1.2891	6.40	0.41	-0.750	0.487	1.112	
0.4154	26582.54	3.5960	3.5959	-1.3030	6.41	0.42	-0.750			
0.4193	26832.19	3.5930	3.5930	-1.3131	6.41	0.42	-0.750			
0.4232	27083.93	3.5900	3.5899	-1.3290	6.42	0.43	-0.750			
0.4272	27340.78	3.5870	3.5870	-1.3511	6.42	0.43	-0.750			
0.4313	27603.28	3.5840	3.5840	-1.3666	6.43	0.44	-0.750			
0.4354	27864.55	3.5810	3.5810	-1.3801	6.43	0.44	-0.750			
0.4395	28131.06	3.5780	3.5779	-1.3959	6.43	0.44	-0.750			
0.4438	28402.17	3.5750	3.5750	-1.4118	6.44	0.45	-0.750			
0.4480	28673.28	3.5720	3.5720	-1.4335	6.44	0.45	-0.750			
0.4523	28949.53	3.5690	3.5690	-1.4486	6.44	0.45	-0.750			
0.4567	29231.80	3.5660	3.5660	-1.4689	6.45	0.46	-0.750			
0.4612	29517.95	3.5630	3.5629	-1.4890	6.45	0.46	-0.750			
0.4657	29803.48	3.5600	3.5600	-1.5002	6.46	0.47	-0.750			
0.4702	30094.63	3.5570	3.5570	-1.5160	6.46	0.47	-0.750			
0.4748	30385.07	3.5540	3.5543	-1.5421	6.47	0.48	-0.750			
0.4794	30683.01	3.5510	3.5507	-1.5512	6.48	0.49	-0.750			
0.4842	30987.36	3.5480	3.5480	-1.5712	6.49	0.50	-0.750			
0.4889	31288.10	3.5450	3.5448	-1.5925	6.49	0.50	-0.750			
0.4937	31599.61	3.5420	3.5421	-1.6126	6.50	0.51	-0.750			
0.4986	31909.22	3.5390	3.5389	-1.6220	6.50	0.51	-0.750			
0.5034	32219.09	3.5360	3.5359	-1.6226	6.51	0.52	-0.750			
0.5084	32535.12	3.5330	3.5328	-1.6459	6.51	0.52	-0.750			
0.5133	32853.54	3.5300	3.5300	-1.6557	6.52	0.53	-0.750			
0.5183	33168.11	3.5270	3.5270	-1.6704	6.53	0.54	-0.750			
0.5233	33494.11	3.5240	3.5240	-1.6784	6.53	0.54	-0.750			
0.5283	33812.28	3.5210	3.5209	-1.6819	6.53	0.54	-0.750			
0.5334	34139.88	3.5180	3.5178	-1.7077	6.54	0.55	-0.750			
0.5386	34473.06	3.5150	3.5149	-1.6792	6.54	0.55	-0.750			
0.5436	34791.59	3.5120	3.5119	-1.6728	6.56	0.57	-0.750			
0.5485	35106.89	3.5090	3.5089	-1.6733	6.57	0.58	-0.750			
0.5536	35427.33	3.5060	3.5060	-1.6699	6.58	0.59	-0.750			
0.5586	35749.26	3.5030	3.5028	-1.6993	6.58	0.59	-0.750			
0.5637	36075.96	3.5000	3.4998	-1.6825	6.59	0.60	-0.750			
0.5688	36404.77	3.4970	3.4971	-1.6981	6.60	0.61	-0.750			
0.5740	36735.05	3.4940	3.4942	-1.7044	6.61	0.62	-0.750			
0.5790	37054.72	3.4910	3.4910	-1.6824	6.61	0.62	-0.750			
0.5840	37378.95	3.4880	3.4879	-1.6687	6.62	0.63	-0.750			
0.5889	37691.89	3.4850	3.4849	-1.6554	6.63	0.64	-0.750			
0.5940	38016.59	3.4820	3.4819	-1.6443	6.64	0.65	-0.750			
0.5990	38336.38	3.4790	3.4789	-1.6335	6.66	0.67	-0.750			
0.6038	38642.59	3.4760	3.4761	-1.6160	6.67	0.68	-0.750			
0.6087	38953.94	3.4730	3.4731	-1.5980	6.68	0.69	-0.750			
0.6134	39258.32	3.4700	3.4700	-1.5976	6.69	0.70	-0.750			
0.6181	39559.46	3.4670	3.4668	-1.5768	6.71	0.72	-0.750			
0.6230	39869.58	3.4640	3.4639	-1.5635	6.73	0.74	-0.750			
0.6277	40169.86	3.4610	3.4609	-1.5356	6.74	0.75	-0.750			
0.6323	40464.24	3.4580	3.4578	-1.5135	6.75	0.76	-0.750			
0.6367	40748.14	3.4550	3.4551	-1.4855	6.76	0.77	-0.750			
0.6411	41033.28	3.4520	3.4518	-1.4604	6.77	0.78	-0.750			
0.6455	41309.57	3.4490	3.4490	-1.4360	6.79	0.80	-0.750			
0.6498	41585.33	3.4460	3.4463	-1.4189	6.80	0.81	-0.750			
0.6541	41860.55	3.4430	3.4430	-1.4005	6.82	0.83	-0.750			
0.6583	42128.58	3.4400	3.4399	-1.3696	6.83	0.84	-0.750			
0.6623	42386.94	3.4370	3.4371	-1.3465	6.84	0.85	-0.750			
0.6663	42644.53	3.4340	3.4340	-1.3255	6.86	0.87	-0.750			
0.6703	42896.18	3.4310	3.4309	-1.2917	6.87	0.88	-0.750			
0.6741	43140.11	3.4280	3.4282	-1.2592	6.89	0.90	-0.750			
0.6779	43383.01	3.4250	3.4250	-1.2424	6.90	0.91	-0.750			
0.6815	43618.51	3.4220	3.4219	-1.2126	6.92	0.93	-0.750			
0.6851	43848.36	3.4190	3.4189	-1.1797	6.93	0.94	-0.750			
0.6886	44070.88	3.4160	3.4160	-1.1480	6.95	0.96	-0.750			
0.6920	44290.51	3.4130	3.4130	-1.1230	6.97	0.98	-0.750			
0.6954	44503.59	3.4100	3.4099	-1.0935	6.99	1.00	-0.750			
0.6986	44707.30	3.4070	3.4071	-1.0594	7.01	1.02	-0.750			
0.7017	44911.53	3.4040	3.4039	-1.0398	7.02	1.03	-0.750			
0.7048	45107.22	3.4010	3.4010	-1.0108	7.04	1.05	-0.750			
0.7078	45299.13	3.3980	3.3980	-0.9834	7.05	1.06	-0.750			
0.7107	45484.22	3.3950	3.3948	-0.9537	7.06	1.07	-0.750			
0.7135	45665.75	3.3920	3.3920	-0.9312	7.08	1.09	-0.750			
0.7163	45842.26	3.3890	3.3890	-0.9113	7.09	1.10	-0.750			
0.7190	46015.71	3.3860	3.3860	-0.8805	7.10	1.11	-0.750			
0.7216	46181.06	3.3830	3.3830	-0.8510	7.12	1.13	-0.750			
0.7241	46345.50	3.3800	3.3800	-0.8268	7.13	1.14	-0.750			
0.7266	46502.60	3.3770	3.3769	-0.7928	7.14	1.15	-0.750			
0.7289	46650.74	3.3740	3.3739	-0.7560	7.15	1.16	-0.750			
0.7311	46792.66	3.3710	3.3710	-0.7338	7.16	1.17	-0.750			
