Ah_balance (normalized)	Ah_balance (mAh)	Voltage - fit (V)	Voltage -  interpolate (V)	dQ/dV (1/V)	Temperature (°C)	Temperature - diff (°C)	Current (C)	R_DC 0ms (mOhm)	R_DC 50ms (mOhm)	R_DC 50 ms PEC (mOhm)
0.0918	5872.19	4.0020	4.0019	-0.0774	6.00	0.01	-0.750			
0.0920	5890.98	3.9990	3.9987	-0.1097	6.00	0.01	-0.750			
0.0924	5914.78	3.9960	3.9959	-0.1383	6.00	0.01	-0.750			
0.0929	5944.55	3.9930	3.9931	-0.1639	6.00	0.01	-0.750			
0.0934	5978.48	3.9900	3.9901	-0.1903	6.00	0.01	-0.750			
0.0940	6018.89	3.9870	3.9870	-0.2154	6.00	0.01	-0.750			
0.0947	6062.69	3.9840	3.9840	-0.2366	5.99	0.00	-0.750			
0.0955	6110.26	3.9810	3.9810	-0.2586	5.99	0.00	-0.750			
0.0963	6161.85	3.9780	3.9781	-0.2826	5.99	-0.00	-0.750			
0.0972	6218.10	3.9750	3.9750	-0.3063	5.99	-0.00	-0.750			
0.0981	6279.46	3.9720	3.9719	-0.3295	5.98	-0.01	-0.750			
0.0991	6344.33	3.9690	3.9691	-0.3533	5.98	-0.01	-0.750			
0.1002	6415.18	3.9660	3.9660	-0.3784	5.98	-0.01	-0.750			
0.1014	6490.50	3.9630	3.9631	-0.4004	5.97	-0.02	-0.750			
0.1026	6569.56	3.9600	3.9600	-0.4235	5.97	-0.02	-0.750			
0.1040	6652.85	3.9570	3.9570	-0.4475	5.96	-0.03	-0.750			
0.1053	6741.31	3.9540	3.9540	-0.4696	5.96	-0.03	-0.750			
0.1068	6834.38	3.9510	3.9510	-0.4884	5.96	-0.03	-0.750			
0.1083	6930.42	3.9480	3.9481	-0.5076	5.95	-0.04	-0.750			
0.1098	7029.82	3.9450	3.9450	-0.5263	5.95	-0.04	-0.750			
0.1115	7132.82	3.9420	3.9420	-0.5450	5.95	-0.04	-0.750			
0.1131	7238.53	3.9390	3.9390	-0.5603	5.95	-0.04	-0.750			
0.1148	7346.67	3.9360	3.9360	-0.5791	5.95	-0.04	-0.750			
0.1166	7461.24	3.9330	3.9331	-0.5953	5.95	-0.04	-0.750			
0.1184	7577.93	3.9300	3.9299	-0.6082	5.95	-0.04	-0.750			
0.1203	7696.93	3.9270	3.9270	-0.6177	5.95	-0.04	-0.750			
0.1221	7816.76	3.9240	3.9239	-0.6262	5.95	-0.04	-0.750			
0.1240	7937.08	3.9210	3.9210	-0.6372	5.95	-0.04	-0.750			
0.1260	8060.87	3.9180	3.9180	-0.6446	5.96	-0.03	-0.750			
0.1279	8184.16	3.9150	3.9150	-0.6522	5.96	-0.03	-0.750			
0.1299	8311.42	3.9120	3.9120	-0.6608	5.96	-0.03	-0.750			
0.1319	8439.17	3.9090	3.9090	-0.6694	5.97	-0.02	-0.750			
0.1339	8568.84	3.9060	3.9060	-0.6736	5.97	-0.02	-0.750			
0.1359	8698.47	3.9030	3.9029	-0.6789	5.97	-0.02	-0.750			
0.1379	8828.11	3.9000	3.9001	-0.6868	5.98	-0.01	-0.750			
0.1400	8962.25	3.8970	3.8970	-0.6912	5.98	-0.01	-0.750			
0.1421	9095.68	3.8940	3.8939	-0.6945	5.98	-0.01	-0.750			
0.1442	9229.54	3.8910	3.8910	-0.6990	5.99	-0.00	-0.750			
0.1463	9363.77	3.8880	3.8881	-0.7024	5.99	0.00	-0.750			
0.1484	9499.74	3.8850	3.8850	-0.7047	5.99	0.00	-0.750			
0.1505	9633.64	3.8820	3.8820	-0.7090	6.00	0.01	-0.750			
0.1527	9770.66	3.8790	3.8791	-0.7114	6.00	0.01	-0.750			
0.1548	9908.80	3.8760	3.8759	-0.7161	6.00	0.01	-0.750			
0.1570	10045.52	3.8730	3.8730	-0.7163	6.01	0.02	-0.750			
0.1591	10184.26	3.8700	3.8700	-0.7107	6.01	0.02	-0.750			
0.1612	10319.95	3.8670	3.8669	-0.7124	6.02	0.03	-0.750			
0.1634	10455.15	3.8640	3.8641	-0.7197	6.03	0.04	-0.750			
0.1655	10593.72	3.8610	3.8608	-0.7208	6.03	0.04	-0.750			
0.1677	10734.02	3.8580	3.8579	-0.7257	6.04	0.05	-0.750			
0.1699	10874.04	3.8550	3.8550	-0.7241	6.05	0.06	-0.750			
0.1721	11013.76	3.8520	3.8521	-0.7270	6.05	0.06	-0.750			
0.1743	11154.36	3.8490	3.8489	-0.7273	6.06	0.07	-0.750			
0.1764	11291.47	3.8460	3.8460	-0.7233	6.07	0.08	-0.750			
0.1786	11428.85	3.8430	3.8430	-0.7236	6.07	0.08	-0.750			
0.1808	11570.80	3.8400	3.8399	-0.7235	6.08	0.09	-0.750			
0.1830	11710.13	3.8370	3.8371	-0.7247	6.09	0.10	-0.750			
0.1851	11848.31	3.8340	3.8340	-0.7291	6.10	0.11	-0.750			
0.1873	11987.55	3.8310	3.8310	-0.7287	6.10	0.11	-0.750			
0.1895	12128.64	3.8280	3.8279	-0.7336	6.11	0.12	-0.750			
0.1917	12269.38	3.8250	3.8251	-0.7341	6.12	0.13	-0.750			
0.1940	12413.34	3.8220	3.8220	-0.7352	6.12	0.13	-0.750			
0.1962	12555.05	3.8190	3.8192	-0.7362	6.13	0.14	-0.750			
0.1983	12694.31	3.8160	3.8160	-0.7315	6.14	0.15	-0.750			
0.2005	12832.97	3.8130	3.8130	-0.7331	6.14	0.15	-0.750			
0.2027	12974.34	3.8100	3.8099	-0.7340	6.15	0.16	-0.750			
0.2050	13117.25	3.8070	3.8070	-0.7360	6.16	0.17	-0.750			
0.2072	13257.93	3.8040	3.8040	-0.7345	6.17	0.18	-0.750			
0.2094	13400.11	3.8010	3.8011	-0.7395	6.17	0.18	-0.750			
0.2116	13540.74	3.7980	3.7980	-0.7394	6.18	0.19	-0.750			
0.2138	13681.52	3.7950	3.7950	-0.7413	6.19	0.20	-0.750			
0.2160	13823.73	3.7920	3.7920	-0.7441	6.19	0.20	-0.750			
0.2183	13969.19	3.7890	3.7890	-0.7500	6.20	0.21	-0.750			
0.2205	14114.87	3.7860	3.7860	-0.7542	6.21	0.22	-0.750			
0.2228	14259.30	3.7830	3.7830	-0.7503	6.22	0.23	-0.750			
0.2250	14402.69	3.7800	3.7800	-0.7483	6.22	0.23	-0.750			
0.2273	14546.53	3.7770	3.7770	-0.7515	6.23	0.24	-0.750			
0.2295	14690.26	3.7740	3.7739	-0.7531	6.24	0.25	-0.750			
0.2318	14835.45	3.7710	3.7709	-0.7573	6.24	0.25	-0.750			
0.2341	14981.33	3.7680	3.7681	-0.7604	6.25	0.26	-0.750			
0.2364	15127.75	3.7650	3.7650	-0.7654	6.26	0.27	-0.750			
0.2387	15275.37	3.7620	3.7620	-0.7720	6.27	0.28	-0.750			
0.2410	15422.86	3.7590	3.7590	-0.7746	6.27	0.28	-0.750			
0.2433	15573.66	3.7560	3.7560	-0.7796	6.28	0.29	-0.750			
0.2457	15723.25	3.7530	3.7529	-0.7802	6.29	0.30	-0.750			
0.2480	15873.73	3.7500	3.7500	-0.7842	6.30	0.31	-0.750			
0.2504	16024.35	3.7470	3.7470	-0.7883	6.30	0.31	-0.750			
0.2527	16174.27	3.7440	3.7440	-0.7928	6.31	0.32	-0.750			
0.2551	16326.79	3.7410	3.7410	-0.7994	6.32	0.33	-0.750			
0.2575	16481.65	3.7380	3.7380	-0.8065	6.33	0.34	-0.750			
0.2600	16637.71	3.7350	3.7350	-0.8121	6.33	0.34	-0.750			
0.2624	16794.69	3.7320	3.7320	-0.8179	6.34	0.35	-0.750			
0.2649	16952.05	3.7290	3.7290	-0.8216	6.34	0.35	-0.750			
0.2673	17109.92	3.7260	3.7260	-0.8259	6.34	0.35	-0.750			
0.2698	17269.06	3.7230	3.7230	-0.8286	6.35	0.36	-0.750			
0.2723	17428.86	3.7200	3.7200	-0.8312	6.35	0.36	-0.750			
0.2748	17587.61	3.7170	3.7170	-0.8406	6.36	0.37	-0.750			
0.2773	17748.86	3.7140	3.7140	-0.8484	6.37	0.38	-0.750			
0.2799	17912.10	3.7110	3.7110	-0.8544	6.38	0.39	-0.750			
0.2825	18078.41	3.7080	3.7079	-0.8587	6.39	0.40	-0.750			
0.2851	18244.14	3.7050	3.7050	-0.8673	6.39	0.40	-0.750			
0.2877	18411.85	3.7020	3.7021	-0.8731	6.40	0.41	-0.750			
0.2903	18579.69	3.6990	3.6990	-0.8770	6.40	0.41	-0.750			
0.2929	18745.38	3.6960	3.6960	-0.8822	6.40	0.41	-0.750			
0.2956	18916.86	3.6930	3.6930	-0.8954	6.41	0.42	-0.750			
0.2983	19089.76	3.6900	3.6900	-0.9041	6.42	0.43	-0.750			
0.3010	19264.34	3.6870	3.6870	-0.9150	6.43	0.44	-0.750			
0.3038	19441.16	3.6840	3.6841	-0.9185	6.43	0.44	-0.750			
0.3065	19618.83	3.6810	3.6809	-0.9288	6.44	0.45	-0.750			
0.3093	19798.15	3.6780	3.6780	-0.9341	6.45	0.46	-0.750			
0.3121	19977.44	3.6750	3.6749	-0.9433	6.46	0.47	-0.750			
0.3150	20160.16	3.6720	3.6720	-0.9502	6.46	0.47	-0.750			
0.3179	20344.02	3.6690	3.6690	-0.9532	6.46	0.47	-0.750			
0.3207	20527.22	3.6660	3.6662	-0.9575	6.47	0.48	-0.750			
0.3236	20711.16	3.6630	3.6630	-0.9736	6.47	0.48	-0.750			
0.3265	20897.57	3.6600	3.6599	-0.9766	6.47	0.48	-0.750			
0.3295	21086.53	3.6570	3.6569	-0.9836	6.48	0.49	-0.750			
0.3324	21275.60	3.6540	3.6540	-0.9883	6.48	0.49	-0.750			
0.3354	21468.16	3.6510	3.6511	-1.0051	6.48	0.49	-0.750			
0.3385	21662.85	3.6480	3.6479	-1.0089	6.49	0.50	-0.750			
0.3415	21855.53	3.6450	3.6450	-1.0130	6.50	0.51	-0.750			
0.3445	22048.83	3.6420	3.6420	-1.0219	6.51	0.52	-0.750			
0.3476	22249.14	3.6390	3.6390	-1.0401	6.51	0.52	-0.750			
0.3508	22449.54	3.6360	3.6359	-1.0488	6.51	0.52	-0.750			
0.3539	22651.82	3.6330	3.6331	-1.0538	6.52	0.53	-0.750			
0.3571	22853.64	3.6300	3.6299	-1.0572	6.52	0.53	-0.750			
0.3603	23059.22	3.6270	3.6271	-1.0751	6.52	0.53	-0.750			
0.3635	23266.32	3.6240	3.6240	-1.0788	6.53	0.54	-0.750			
0.3668	23473.37	3.6210	3.6210	-1.0864	6.54	0.55	-0.750			
0.3701	23683.42	3.6180	3.6180	-1.0946	6.55	0.56	-0.750			
0.3733	23894.34	3.6150	3.6150	-1.1121	6.55	0.56	-0.750			
0.3767	24111.43	3.6120	3.6119	-1.1203	6.55	0.56	-0.750			
0.3801	24327.03	3.6090	3.6089	-1.1243	6.55	0.56	-0.750			
0.3834	24540.61	3.6060	3.6063	-1.1399	6.55	0.56	-0.750			
0.3869	24763.60	3.6030	3.6029	-1.1512	6.56	0.57	-0.750			
0.3904	24984.68	3.6000	3.5999	-1.1579	6.57	0.58	-0.750			
0.3938	25204.38	3.5970	3.5970	-1.1703	6.58	0.59	-0.750			
0.3974	25431.74	3.5940	3.5940	-1.1900	6.59	0.60	-0.750			
0.4011	25667.34	3.5910	3.5909	-1.1825	6.59	0.60	-0.750			
0.4046	25897.15	3.5880	3.5877	-1.1668	6.59	0.60	-0.750			
0.4081	26116.57	3.5850	3.5858	-1.1546	6.59	0.60	-0.750	0.459	1.030	
0.4115	26336.75	3.5820	3.5820	-1.1781	6.59	0.60	-0.750			
0.4149	26556.22	3.5790	3.5787	-1.1815	6.60	0.61	-0.750			
0.4185	26780.90	3.5760	3.5759	-1.2076	6.61	0.62	-0.750			
0.4221	27013.17	3.5730	3.5732	-1.2381	6.61	0.62	-0.750			
0.4260	27265.26	3.5700	3.5700	-1.2747	6.61	0.62	-0.750			
0.4299	27512.32	3.5670	3.5669	-1.2796	6.62	0.63	-0.750			
0.4337	27755.82	3.5640	3.5642	-1.2890	6.62	0.63	-0.750			
0.4376	28006.89	3.5610	3.5610	-1.3068	6.62	0.63	-0.750			
0.4415	28258.00	3.5580	3.5579	-1.3133	6.63	0.64	-0.750			
0.4455	28510.38	3.5550	3.5551	-1.3258	6.63	0.64	-0.750			
0.4495	28765.94	3.5520	3.5520	-1.3430	6.64	0.65	-0.750			
0.4535	29025.02	3.5490	3.5490	-1.3617	6.64	0.65	-0.750			
0.4576	29288.40	3.5460	3.5460	-1.3816	6.65	0.66	-0.750			
0.4618	29554.87	3.5430	3.5429	-1.3916	6.66	0.67	-0.750			
0.4660	29826.96	3.5400	3.5400	-1.4056	6.66	0.67	-0.750			
0.4703	30098.43	3.5370	3.5371	-1.4217	6.67	0.68	-0.750			
0.4746	30372.98	3.5340	3.5339	-1.4241	6.68	0.69	-0.750			
0.4789	30647.46	3.5310	3.5309	-1.4344	6.68	0.69	-0.750			
0.4832	30923.54	3.5280	3.5281	-1.4471	6.69	0.70	-0.750			
0.4875	31201.92	3.5250	3.5249	-1.4578	6.70	0.71	-0.750			
0.4920	31488.64	3.5220	3.5221	-1.4683	6.70	0.71	-0.750			
0.4964	31771.66	3.5190	3.5192	-1.4759	6.71	0.72	-0.750			
0.5009	32054.42	3.5160	3.5161	-1.4765	6.72	0.73	-0.750			
0.5053	32340.53	3.5130	3.5129	-1.4865	6.72	0.73	-0.750			
0.5098	32624.29	3.5100	3.5101	-1.4878	6.73	0.74	-0.750			
0.5142	32911.93	3.5070	3.5069	-1.4919	6.74	0.75	-0.750			
0.5187	33193.69	3.5040	3.5040	-1.5088	6.75	0.76	-0.750			
0.5232	33485.36	3.5010	3.5010	-1.5073	6.76	0.77	-0.750			
0.5278	33781.98	3.4980	3.4979	-1.5127	6.77	0.78	-0.750			
0.5324	34073.66	3.4950	3.4952	-1.5150	6.79	0.80	-0.750			
0.5369	34361.81	3.4920	3.4923	-1.5090	6.80	0.81	-0.750			
0.5415	34653.42	3.4890	3.4888	-1.5070	6.80	0.81	-0.750			
0.5460	34941.35	3.4860	3.4862	-1.5048	6.81	0.82	-0.750			
0.5505	35230.67	3.4830	3.4829	-1.4988	6.82	0.83	-0.750			
0.5550	35520.43	3.4800	3.4801	-1.5012	6.84	0.85	-0.750			
0.5595	35805.18	3.4770	3.4771	-1.4980	6.85	0.86	-0.750			
0.5639	36091.36	3.4740	3.4739	-1.4962	6.86	0.87	-0.750			
0.5684	36378.64	3.4710	3.4709	-1.4914	6.87	0.88	-0.750			
0.5729	36664.60	3.4680	3.4681	-1.4851	6.88	0.89	-0.750			
0.5774	36952.51	3.4650	3.4650	-1.4838	6.90	0.91	-0.750			
0.5818	37236.13	3.4620	3.4620	-1.4741	6.91	0.92	-0.750			
0.5862	37517.03	3.4590	3.4589	-1.4611	6.92	0.93	-0.750			
0.5905	37795.14	3.4560	3.4559	-1.4389	6.94	0.95	-0.750			
0.5949	38071.55	3.4530	3.4530	-1.4335	6.96	0.97	-0.750			
0.5991	38345.56	3.4500	3.4500	-1.4217	6.97	0.98	-0.750			
0.6034	38620.19	3.4470	3.4469	-1.4119	6.98	0.99	-0.750			
0.6077	38889.69	3.4440	3.4440	-1.3994	6.99	1.00	-0.750			
0.6118	39156.85	3.4410	3.4410	-1.3797	7.00	1.01	-0.750			
0.6160	39422.19	3.4380	3.4379	-1.3647	7.02	1.03	-0.750			
0.6200	39682.92	3.4350	3.4351	-1.3516	7.04	1.05	-0.750			
0.6241	39939.74	3.4320	3.4319	-1.3151	7.05	1.06	-0.750			
0.6280	40192.07	3.4290	3.4289	-1.2920	7.07	1.08	-0.750			
0.6318	40436.71	3.4260	3.4261	-1.2679	7.08	1.09	-0.750			
0.6355	40674.53	3.4230	3.4229	-1.2462	7.10	1.11	-0.750			
0.6393	40916.03	3.4200	3.4199	-1.2254	7.11	1.12	-0.750			
0.6429	41147.94	3.4170	3.4170	-1.1999	7.12	1.13	-0.750			
0.6465	41374.85	3.4140	3.4142	-1.1769	7.13	1.14	-0.750			
0.6501	41603.38	3.4110	3.4109	-1.1509	7.15	1.16	-0.750			
0.6535	41821.39	3.4080	3.4080	-1.1143	7.17	1.18	-0.750			
0.6567	42031.17	3.4050	3.4050	-1.0816	7.19	1.20	-0.750			
0.6599	42233.96	3.4020	3.4020	-1.0582	7.21	1.22	-0.750			
0.6630	42434.90	3.3990	3.3989	-1.0349	7.23	1.24	-0.750			
0.6661	42627.71	3.3960	3.3960	-1.0101	7.24	1.25	-0.750			
0.6691	42820.95	3.3930	3.3929	-0.9877	7.26	1.27	-0.750			
0.6720	43010.65	3.3900	3.3901	-0.9729	7.28	1.29	-0.750			
0.6750	43198.01	3.3870	3.3869	-0.9481	7.29	1.30	-0.750			
0.6778	43377.41	3.3840	3.3840	-0.9163	7.30	1.31	-0.750			
0.6804	43547.84	3.3810	3.3810	-0.8881	7.32	1.33	-0.750			
0.6831	43716.76	3.3780	3.3781	-0.8692	7.33	1.34	-0.750			
0.6856	43879.80	3.3750	3.3749	-0.8458	7.34	1.35	-0.750			
0.6882	44041.64	3.3720	3.3720	-0.8282	7.35	1.36	-0.750			
0.6906	44198.80	3.3690	3.3690	-0.8037	7.36	1.37	-0.750			
0.6930	44352.31	3.3660	3.3660	-0.7842	7.38	1.39	-0.750			
0.6953	44502.11	3.3630	3.3631	-0.7638	7.39	1.40	-0.750			
0.6976	44644.95	3.3600	3.3599	-0.7403	7.40	1.41	-0.750			
0.6997	44783.77	3.3570	3.3570	-0.7186	7.41	1.42	-0.750			
0.7019	44919.41	3.3540	3.3540	-0.7018	7.43	1.44	-0.750			
0.7039	45051.86	3.3510	3.3510	-0.6834	7.44	1.45	-0.750			
0.7060	45184.53	3.3480	3.3480	-0.6681	7.45	1.46	-0.750			
0.7080	45309.61	3.3450	3.3450	-0.6492	7.47	1.48	-0.750			
0.7099	45431.49	3.3420	3.3420	-0.6321	7.48	1.49	-0.750			
0.7117	45551.20	3.3390	3.3390	-0.6173	7.49	1.50	-0.750			
0.7136	45667.97	3.3360	3.3359	-0.6002	7.50	1.51	-0.750			
0.7153	45781.26	3.3330	3.3330	-0.5873	7.51	1.52	-0.750			
0.7171	45893.61	3.3300	3.3302	-0.5757	7.53	1.54	-0.750			
0.7188	46002.87	3.3270	3.3270	-0.5616	7.54	1.55	-0.750			
0.7205	46109.26	3.3240	3.3239	-0.5522	7.55	1.56	-0.750			
