Ah_balance (normalized)	Ah_balance (mAh)	Voltage - fit (V)	Voltage -  interpolate (V)	dQ/dV (1/V)	Temperature (°C)	Temperature - diff (°C)	Current (C)	R_DC 0ms (mOhm)	R_DC 50ms (mOhm)	R_DC 50 ms PEC (mOhm)
0.4047	25898.34	3.8440	3.8439	1.4633	7.04	1.07	0.750			
0.4086	26150.97	3.8410	3.8411	1.3600	7.02	1.05	0.750			
0.4127	26414.52	3.8380	3.8382	1.3918	7.00	1.03	0.750			
0.4170	26686.39	3.8350	3.8351	1.3869	6.98	1.01	0.750			
0.4212	26958.09	3.8320	3.8321	1.4265	6.96	0.99	0.750			
0.4256	27236.50	3.8290	3.8289	1.4718	6.94	0.97	0.750			
0.4299	27512.24	3.8260	3.8262	1.4774	6.92	0.95	0.750			
0.4345	27806.16	3.8230	3.8229	1.5061	6.91	0.94	0.750			
0.4391	28101.67	3.8200	3.8199	1.5150	6.90	0.93	0.750			
0.4437	28393.76	3.8170	3.8172	1.5733	6.88	0.91	0.750			
0.4483	28692.43	3.8140	3.8141	1.6077	6.86	0.89	0.750			
0.4533	29008.50	3.8110	3.8110	1.6439	6.85	0.88	0.750			
0.4584	29339.07	3.8080	3.8078	1.6907	6.83	0.86	0.750			
0.4635	29660.89	3.8050	3.8050	1.6812	6.82	0.85	0.750			
0.4684	29978.08	3.8020	3.8014	1.7237	6.80	0.83	0.750			
0.4736	30312.23	3.7990	3.7989	1.7444	6.78	0.81	0.750			
0.4791	30663.58	3.7960	3.7961	1.8681	6.76	0.79	0.750			
0.4845	31009.90	3.7930	3.7929	1.8066	6.75	0.78	0.750			
0.4901	31363.24	3.7900	3.7902	1.8527	6.73	0.76	0.750			
0.4957	31725.29	3.7870	3.7871	1.8889	6.71	0.74	0.750			
0.5015	32094.03	3.7840	3.7837	1.9248	6.69	0.72	0.750			
0.5072	32462.77	3.7810	3.7811	1.9031	6.67	0.70	0.750			
0.5130	32828.93	3.7780	3.7780	1.9021	6.66	0.69	0.750			
0.5186	33193.21	3.7750	3.7752	2.1554	6.64	0.67	0.750			
0.5258	33650.50	3.7720	3.7720	2.2709	6.63	0.66	0.750			
0.5329	34102.85	3.7690	3.7691	2.2893	6.61	0.64	0.750			
0.5389	34491.04	3.7660	3.7659	1.9929	6.58	0.61	0.750			
0.5449	34870.45	3.7630	3.7630	1.9709	6.56	0.59	0.750			
0.5509	35255.78	3.7600	3.7600	2.0036	6.53	0.56	0.750			
0.5569	35639.76	3.7570	3.7570	2.0335	6.51	0.54	0.750			
0.5629	36025.52	3.7540	3.7541	2.0463	6.50	0.53	0.750			
0.5690	36416.15	3.7510	3.7510	2.0746	6.48	0.51	0.750			
0.5753	36817.87	3.7480	3.7481	2.0886	6.46	0.49	0.750			
0.5817	37228.42	3.7450	3.7450	2.1400	6.44	0.47	0.750			
0.5882	37646.77	3.7420	3.7419	2.2185	6.42	0.45	0.750			
0.5950	38081.87	3.7390	3.7390	2.3056	6.41	0.44	0.750			
0.6020	38528.23	3.7360	3.7358	2.3433	6.39	0.42	0.750			
0.6090	38978.24	3.7330	3.7331	2.4067	6.37	0.40	0.750			
0.6165	39455.42	3.7300	3.7301	2.4446	6.34	0.37	0.750			
0.6238	39923.17	3.7270	3.7269	2.4721	6.32	0.35	0.750			
0.6311	40388.63	3.7240	3.7240	2.4975	6.30	0.33	0.750			
0.6387	40878.76	3.7210	3.7210	2.5089	6.27	0.30	0.750			
0.6463	41361.89	3.7180	3.7180	2.3591	6.26	0.29	0.750			
0.6532	41802.24	3.7150	3.7151	2.2806	6.24	0.27	0.750			
0.6598	42224.51	3.7120	3.7122	2.1489	6.21	0.24	0.750			
0.6661	42632.19	3.7090	3.7089	2.0175	6.19	0.22	0.750			
0.6718	42992.52	3.7060	3.7059	1.8410	6.18	0.21	0.750			
0.6772	43342.90	3.7030	3.7028	1.7337	6.17	0.20	0.750			
0.6821	43656.72	3.7000	3.7001	1.5985	6.15	0.18	0.750			
0.6867	43950.00	3.6970	3.6971	1.5079	6.14	0.17	0.750			
0.6911	44232.21	3.6940	3.6940	1.4145	6.13	0.16	0.750			
0.6953	44498.89	3.6910	3.6911	1.3538	6.12	0.15	0.750			
0.6993	44755.00	3.6880	3.6880	1.3089	6.11	0.14	0.750			
0.7031	44997.49	3.6850	3.6849	1.2604	6.11	0.14	0.750			
0.7067	45230.49	3.6820	3.6820	1.2336	6.10	0.13	0.750			
0.7104	45468.62	3.6790	3.6790	1.2319	6.10	0.13	0.750			
0.7141	45704.96	3.6760	3.6759	1.2405	6.09	0.12	0.750			
0.7178	45941.80	3.6730	3.6730	1.2366	6.08	0.11	0.750			
0.7216	46181.82	3.6700	3.6700	1.2395	6.07	0.10	0.750			
0.7253	46420.13	3.6670	3.6670	1.2370	6.06	0.09	0.750			
0.7290	46656.93	3.6640	3.6642	1.2295	6.05	0.08	0.750			
0.7327	46892.83	3.6610	3.6610	1.2233	6.04	0.07	0.750			
0.7363	47125.82	3.6580	3.6580	1.2248	6.04	0.07	0.750			
0.7400	47362.02	3.6550	3.6549	1.2053	6.03	0.06	0.750			
0.7437	47595.06	3.6520	3.6520	1.2069	6.02	0.05	0.750			
0.7473	47825.00	3.6490	3.6491	1.2070	6.02	0.05	0.750			
0.7509	48056.64	3.6460	3.6459	1.2016	6.01	0.04	0.750			
0.7545	48286.21	3.6430	3.6430	1.1874	6.00	0.03	0.750			
0.7580	48512.59	3.6400	3.6401	1.1926	5.99	0.02	0.750			
0.7617	48746.41	3.6370	3.6370	1.1876	5.98	0.01	0.750			
0.7652	48970.37	3.6340	3.6340	1.1701	5.97	0.00	0.750			
0.7686	49193.16	3.6310	3.6312	1.1743	5.97	0.00	0.750			
0.7721	49414.79	3.6280	3.6278	1.1943	5.97	0.00	0.750			
0.7757	49643.83	3.6250	3.6249	1.2190	5.97	0.00	0.750			
0.7793	49877.12	3.6220	3.6220	1.2347	5.97	0.00	0.750			
0.7831	50118.18	3.6190	3.6191	1.2717	5.97	0.00	0.750			
0.7873	50384.21	3.6160	3.6159	1.2373	5.97	0.00	0.750			
0.7910	50625.94	3.6130	3.6131	1.1447	5.97	0.00	0.750			
0.7943	50835.36	3.6100	3.6103	0.9980	5.97	0.00	0.750			
0.7972	51023.11	3.6070	3.6071	0.8570	5.97	0.00	0.750			
0.7995	51166.42	3.6040	3.6042	0.7107	5.97	0.00	0.750			
0.8012	51273.64	3.6010	3.6012	0.5522	5.97	0.00	0.750			
0.8026	51366.60	3.5980	3.5979	0.4387	5.97	0.00	0.750			
0.8036	51431.40	3.5950	3.5950	0.3437	5.97	0.00	0.750			
0.8045	51488.73	3.5920	3.5919	0.2758	5.97	0.00	0.750			
0.8051	51529.31	3.5890	3.5890	0.2291	5.97	0.00	0.750			
0.8057	51566.70	3.5860	3.5864	0.1804	5.97	0.00	0.750			
0.8062	51597.20	3.5830	3.5828	0.1437	5.97	0.00	0.750			
0.8066	51619.79	3.5800	3.5799	0.1078	5.97	0.00	0.750			
0.8068	51637.46	3.5770	3.5771	0.0763	5.97	0.00	0.750			
0.8070	51646.38	3.5740	3.5748	0.0477	5.97	0.00	0.750			
0.8071	51652.92	3.5710	3.5723	0.0203	5.97	0.00	0.750			
0.8071	51654.20	3.5680	3.5717	-0.0070	5.97	0.00	0.750			
