Ah_balance (normalized)	Ah_balance (mAh)	Voltage - fit (V)	Voltage -  interpolate (V)	dQ/dV (1/V)	Temperature (°C)	Temperature - diff (°C)	Current (C)	R_DC 0ms (mOhm)	R_DC 50ms (mOhm)	R_DC 50 ms PEC (mOhm)
0.0965	6178.39	4.0070	4.0067	-0.0854	5.99	0.01	-0.750			
0.0968	6198.20	4.0040	4.0038	-0.1142	5.99	0.01	-0.750			
0.0972	6222.68	4.0010	4.0009	-0.1407	5.99	0.01	-0.750			
0.0977	6252.45	3.9980	3.9981	-0.1658	5.99	0.01	-0.750			
0.0982	6286.81	3.9950	3.9951	-0.1899	5.99	0.01	-0.750			
0.0989	6327.12	3.9920	3.9920	-0.2115	5.99	0.01	-0.750			
0.0995	6369.26	3.9890	3.9890	-0.2351	5.99	0.01	-0.750			
0.1003	6416.67	3.9860	3.9861	-0.2569	5.98	0.00	-0.750			
0.1011	6468.21	3.9830	3.9829	-0.2794	5.98	0.00	-0.750			
0.1019	6523.83	3.9800	3.9801	-0.3022	5.98	0.00	-0.750			
0.1029	6583.74	3.9770	3.9770	-0.3285	5.98	0.00	-0.750			
0.1039	6649.62	3.9740	3.9741	-0.3514	5.98	0.00	-0.750			
0.1050	6719.85	3.9710	3.9709	-0.3748	5.98	0.00	-0.750			
0.1061	6793.51	3.9680	3.9682	-0.3966	5.98	-0.00	-0.750			
0.1074	6872.53	3.9650	3.9649	-0.4198	5.98	-0.00	-0.750			
0.1087	6955.26	3.9620	3.9620	-0.4400	5.98	-0.00	-0.750			
0.1101	7043.21	3.9590	3.9589	-0.4532	5.98	-0.00	-0.750			
0.1114	7130.76	3.9560	3.9561	-0.4754	5.98	-0.00	-0.750			
0.1129	7222.68	3.9530	3.9531	-0.5018	5.97	-0.01	-0.750			
0.1144	7320.38	3.9500	3.9499	-0.5231	5.97	-0.01	-0.750			
0.1160	7423.40	3.9470	3.9468	-0.5448	5.97	-0.01	-0.750			
0.1177	7531.47	3.9440	3.9441	-0.5638	5.97	-0.01	-0.750			
0.1194	7643.10	3.9410	3.9411	-0.5798	5.97	-0.01	-0.750			
0.1212	7759.40	3.9380	3.9379	-0.5972	5.97	-0.01	-0.750			
0.1230	7872.21	3.9350	3.9350	-0.6039	5.97	-0.01	-0.750			
0.1248	7986.35	3.9320	3.9320	-0.6142	5.97	-0.01	-0.750			
0.1267	8107.41	3.9290	3.9290	-0.6291	5.97	-0.01	-0.750			
0.1286	8230.58	3.9260	3.9260	-0.6398	5.97	-0.01	-0.750			
0.1305	8354.90	3.9230	3.9230	-0.6475	5.97	-0.01	-0.750			
0.1325	8481.01	3.9200	3.9201	-0.6568	5.97	-0.01	-0.750			
0.1345	8607.44	3.9170	3.9169	-0.6617	5.97	-0.01	-0.750			
0.1365	8733.83	3.9140	3.9140	-0.6670	5.97	-0.01	-0.750			
0.1385	8862.52	3.9110	3.9110	-0.6757	5.98	-0.00	-0.750			
0.1405	8993.56	3.9080	3.9080	-0.6866	5.98	-0.00	-0.750			
0.1426	9126.72	3.9050	3.9050	-0.6909	5.98	-0.00	-0.750			
0.1447	9260.74	3.9020	3.9020	-0.6969	5.98	0.00	-0.750			
0.1468	9394.61	3.8990	3.8990	-0.7015	5.98	0.00	-0.750			
0.1489	9529.41	3.8960	3.8960	-0.7101	5.98	0.00	-0.750			
0.1510	9666.51	3.8930	3.8929	-0.7144	5.99	0.01	-0.750			
0.1532	9804.89	3.8900	3.8900	-0.7179	5.99	0.01	-0.750			
0.1554	9943.70	3.8870	3.8871	-0.7195	5.99	0.01	-0.750			
0.1575	10082.78	3.8840	3.8840	-0.7217	5.99	0.01	-0.750			
0.1597	10221.83	3.8810	3.8809	-0.7199	6.00	0.02	-0.750			
0.1619	10358.79	3.8780	3.8780	-0.7274	6.01	0.03	-0.750			
0.1640	10498.40	3.8750	3.8750	-0.7229	6.02	0.04	-0.750			
0.1662	10638.85	3.8720	3.8719	-0.7295	6.02	0.04	-0.750			
0.1684	10779.63	3.8690	3.8694	-0.7294	6.03	0.05	-0.750			
0.1706	10919.87	3.8660	3.8658	-0.7320	6.03	0.05	-0.750			
0.1728	11058.57	3.8630	3.8630	-0.7373	6.04	0.06	-0.750			
0.1750	11201.23	3.8600	3.8600	-0.7332	6.04	0.06	-0.750			
0.1772	11342.44	3.8570	3.8569	-0.7411	6.04	0.06	-0.750			
0.1795	11485.39	3.8540	3.8540	-0.7464	6.05	0.07	-0.750			
0.1817	11627.78	3.8510	3.8510	-0.7453	6.05	0.07	-0.750			
0.1839	11771.78	3.8480	3.8478	-0.7474	6.06	0.08	-0.750			
0.1862	11914.52	3.8450	3.8451	-0.7497	6.07	0.09	-0.750			
0.1884	12058.68	3.8420	3.8420	-0.7521	6.07	0.09	-0.750			
0.1907	12206.45	3.8390	3.8389	-0.7553	6.08	0.10	-0.750			
0.1930	12349.84	3.8360	3.8360	-0.7498	6.09	0.11	-0.750			
0.1952	12493.53	3.8330	3.8330	-0.7519	6.10	0.12	-0.750			
0.1975	12638.70	3.8300	3.8299	-0.7525	6.10	0.12	-0.750			
0.1998	12784.27	3.8270	3.8269	-0.7543	6.11	0.13	-0.750			
0.2020	12927.66	3.8240	3.8240	-0.7527	6.12	0.14	-0.750			
0.2043	13074.53	3.8210	3.8210	-0.7560	6.12	0.14	-0.750			
0.2066	13220.86	3.8180	3.8181	-0.7514	6.13	0.15	-0.750			
0.2088	13363.88	3.8150	3.8149	-0.7490	6.14	0.16	-0.750			
0.2110	13506.26	3.8120	3.8121	-0.7540	6.15	0.17	-0.750			
0.2133	13649.33	3.8090	3.8090	-0.7514	6.15	0.17	-0.750			
0.2156	13797.41	3.8060	3.8059	-0.7568	6.16	0.18	-0.750			
0.2178	13942.14	3.8030	3.8030	-0.7569	6.17	0.19	-0.750			
0.2201	14088.23	3.8000	3.8000	-0.7576	6.18	0.20	-0.750			
0.2224	14234.65	3.7970	3.7969	-0.7579	6.18	0.20	-0.750			
0.2247	14377.89	3.7940	3.7940	-0.7586	6.19	0.21	-0.750			
0.2269	14523.52	3.7910	3.7910	-0.7558	6.20	0.22	-0.750			
0.2292	14670.92	3.7880	3.7879	-0.7603	6.20	0.22	-0.750			
0.2315	14817.17	3.7850	3.7851	-0.7588	6.21	0.23	-0.750			
0.2338	14962.11	3.7820	3.7818	-0.7554	6.22	0.24	-0.750			
0.2360	15106.62	3.7790	3.7790	-0.7613	6.23	0.25	-0.750			
0.2383	15251.58	3.7760	3.7760	-0.7629	6.23	0.25	-0.750			
0.2406	15399.85	3.7730	3.7729	-0.7672	6.24	0.26	-0.750			
0.2429	15547.88	3.7700	3.7701	-0.7715	6.25	0.27	-0.750			
0.2453	15696.11	3.7670	3.7670	-0.7716	6.26	0.28	-0.750			
0.2476	15844.09	3.7640	3.7640	-0.7770	6.26	0.28	-0.750			
0.2499	15994.02	3.7610	3.7610	-0.7763	6.27	0.29	-0.750			
0.2522	16142.15	3.7580	3.7580	-0.7759	6.28	0.30	-0.750			
0.2546	16291.79	3.7550	3.7550	-0.7800	6.29	0.31	-0.750			
0.2569	16441.87	3.7520	3.7521	-0.7834	6.29	0.31	-0.750			
0.2592	16590.75	3.7490	3.7490	-0.7880	6.30	0.32	-0.750			
0.2616	16743.80	3.7460	3.7459	-0.7912	6.31	0.33	-0.750			
0.2640	16896.37	3.7430	3.7430	-0.7895	6.32	0.34	-0.750			
0.2664	17049.54	3.7400	3.7399	-0.7934	6.32	0.34	-0.750			
0.2688	17200.95	3.7370	3.7372	-0.7987	6.33	0.35	-0.750			
0.2712	17353.90	3.7340	3.7340	-0.8037	6.33	0.35	-0.750			
0.2735	17506.88	3.7310	3.7309	-0.8128	6.34	0.36	-0.750			
0.2760	17665.84	3.7280	3.7279	-0.8146	6.34	0.36	-0.750			
0.2785	17825.13	3.7250	3.7250	-0.8213	6.35	0.37	-0.750			
0.2810	17982.26	3.7220	3.7222	-0.8249	6.35	0.37	-0.750			
0.2834	18140.59	3.7190	3.7190	-0.8291	6.36	0.38	-0.750			
0.2859	18298.61	3.7160	3.7159	-0.8396	6.37	0.39	-0.750			
0.2884	18460.29	3.7130	3.7129	-0.8419	6.37	0.39	-0.750			
0.2910	18624.05	3.7100	3.7099	-0.8542	6.38	0.40	-0.750			
0.2936	18790.31	3.7070	3.7073	-0.8624	6.39	0.41	-0.750			
0.2962	18956.34	3.7040	3.7040	-0.8699	6.40	0.42	-0.750			
0.2988	19122.78	3.7010	3.7009	-0.8715	6.41	0.43	-0.750			
0.3014	19288.63	3.6980	3.6980	-0.8744	6.42	0.44	-0.750			
0.3040	19458.21	3.6950	3.6949	-0.8863	6.42	0.44	-0.750			
0.3067	19629.56	3.6920	3.6921	-0.8945	6.43	0.45	-0.750			
0.3094	19803.34	3.6890	3.6889	-0.8959	6.44	0.46	-0.750			
0.3122	19978.47	3.6860	3.6859	-0.8876	6.44	0.46	-0.750			
0.3148	20147.47	3.6830	3.6831	-0.8859	6.44	0.46	-0.750			
0.3174	20316.63	3.6800	3.6801	-0.8877	6.45	0.47	-0.750			
0.3200	20480.57	3.6770	3.6771	-0.8982	6.45	0.47	-0.750			
0.3227	20653.16	3.6740	3.6738	-0.9143	6.46	0.48	-0.750			
0.3255	20830.14	3.6710	3.6710	-0.9304	6.46	0.48	-0.750			
0.3283	21011.95	3.6680	3.6680	-0.9537	6.47	0.49	-0.750			
0.3313	21203.13	3.6650	3.6652	-0.9792	6.47	0.49	-0.750			
0.3342	21391.78	3.6620	3.6619	-0.9867	6.48	0.50	-0.750			
0.3372	21581.16	3.6590	3.6590	-0.9938	6.48	0.50	-0.750			
0.3402	21770.72	3.6560	3.6559	-1.0045	6.49	0.51	-0.750			
0.3432	21965.33	3.6530	3.6533	-1.0237	6.50	0.52	-0.750			
0.3463	22163.34	3.6500	3.6498	-1.0361	6.50	0.52	-0.750			
0.3494	22363.29	3.6470	3.6470	-1.0446	6.50	0.52	-0.750			
0.3526	22564.85	3.6440	3.6441	-1.0517	6.50	0.52	-0.750			
0.3558	22769.84	3.6410	3.6410	-1.0717	6.50	0.52	-0.750			
0.3590	22975.03	3.6380	3.6380	-1.0734	6.50	0.52	-0.750			
0.3622	23179.64	3.6350	3.6348	-1.0778	6.51	0.53	-0.750			
0.3654	23388.01	3.6320	3.6321	-1.0880	6.52	0.54	-0.750			
0.3687	23596.47	3.6290	3.6291	-1.1066	6.52	0.54	-0.750			
0.3721	23812.51	3.6260	3.6259	-1.1198	6.53	0.55	-0.750			
0.3754	24028.75	3.6230	3.6230	-1.1300	6.53	0.55	-0.750			
0.3788	24245.01	3.6200	3.6199	-1.1383	6.54	0.56	-0.750			
0.3823	24468.89	3.6170	3.6170	-1.1565	6.54	0.56	-0.750			
0.3858	24690.98	3.6140	3.6139	-1.1616	6.54	0.56	-0.750			
0.3893	24914.79	3.6110	3.6110	-1.1703	6.55	0.57	-0.750			
0.3928	25137.77	3.6080	3.6081	-1.1739	6.55	0.57	-0.750			
0.3964	25366.41	3.6050	3.6049	-1.2019	6.55	0.57	-0.750			
0.4000	25597.11	3.6020	3.6020	-1.2202	6.56	0.58	-0.750			
0.4036	25833.38	3.5990	3.5989	-1.2368	6.57	0.59	-0.750			
0.4074	26073.55	3.5960	3.5961	-1.2477	6.57	0.59	-0.750			
0.4112	26317.56	3.5930	3.5933	-1.2594	6.57	0.59	-0.750	0.482	1.081	
0.4150	26559.89	3.5900	3.5899	-1.2692	6.58	0.60	-0.750			
0.4188	26801.48	3.5870	3.5874	-1.2731	6.58	0.60	-0.750			
0.4227	27050.28	3.5840	3.5839	-1.2828	6.58	0.60	-0.750			
0.4265	27296.51	3.5810	3.5810	-1.3026	6.59	0.61	-0.750			
0.4304	27548.08	3.5780	3.5780	-1.3203	6.59	0.61	-0.750			
0.4344	27804.64	3.5750	3.5749	-1.3351	6.60	0.62	-0.750			
0.4385	28062.52	3.5720	3.5720	-1.3419	6.60	0.62	-0.750			
0.4425	28319.35	3.5690	3.5691	-1.3548	6.61	0.63	-0.750			
0.4466	28581.37	3.5660	3.5660	-1.3685	6.62	0.64	-0.750			
0.4507	28846.63	3.5630	3.5630	-1.3850	6.62	0.64	-0.750			
0.4549	29112.92	3.5600	3.5600	-1.3874	6.63	0.65	-0.750			
0.4591	29382.08	3.5570	3.5570	-1.3889	6.63	0.65	-0.750			
0.4633	29650.80	3.5540	3.5540	-1.4052	6.63	0.65	-0.750			
0.4675	29919.07	3.5510	3.5511	-1.4280	6.63	0.65	-0.750			
0.4718	30193.41	3.5480	3.5478	-1.4377	6.64	0.66	-0.750			
0.4761	30468.98	3.5450	3.5449	-1.4640	6.64	0.66	-0.750			
0.4805	30753.79	3.5420	3.5423	-1.4914	6.65	0.67	-0.750			
0.4851	31044.77	3.5390	3.5389	-1.5113	6.65	0.67	-0.750			
0.4897	31342.79	3.5360	3.5359	-1.5314	6.65	0.67	-0.750			
0.4943	31637.41	3.5330	3.5331	-1.5221	6.65	0.67	-0.750			
0.4989	31928.34	3.5300	3.5298	-1.5469	6.66	0.68	-0.750			
0.5035	32226.89	3.5270	3.5270	-1.5515	6.67	0.69	-0.750			
0.5081	32519.32	3.5240	3.5240	-1.5641	6.67	0.69	-0.750			
0.5129	32825.40	3.5210	3.5210	-1.5867	6.67	0.69	-0.750			
0.5177	33131.18	3.5180	3.5180	-1.5884	6.67	0.69	-0.750			
0.5225	33442.70	3.5150	3.5149	-1.5903	6.68	0.70	-0.750			
0.5273	33749.15	3.5120	3.5118	-1.6041	6.70	0.72	-0.750			
0.5322	34060.19	3.5090	3.5089	-1.5907	6.71	0.73	-0.750			
0.5369	34361.58	3.5060	3.5060	-1.5795	6.72	0.74	-0.750			
0.5416	34661.43	3.5030	3.5033	-1.5681	6.73	0.75	-0.750			
0.5463	34962.41	3.5000	3.4998	-1.5623	6.74	0.76	-0.750			
0.5510	35264.60	3.4970	3.4969	-1.5703	6.75	0.77	-0.750			
0.5556	35559.55	3.4940	3.4941	-1.5790	6.76	0.78	-0.750			
0.5604	35866.18	3.4910	3.4909	-1.5800	6.77	0.79	-0.750			
0.5652	36171.91	3.4880	3.4878	-1.5876	6.78	0.80	-0.750			
0.5699	36473.37	3.4850	3.4850	-1.5757	6.79	0.81	-0.750			
0.5747	36780.53	3.4820	3.4822	-1.5788	6.81	0.83	-0.750			
0.5794	37082.91	3.4790	3.4791	-1.5615	6.83	0.85	-0.750			
0.5841	37381.06	3.4760	3.4758	-1.5331	6.84	0.86	-0.750			
0.5886	37673.20	3.4730	3.4728	-1.5315	6.84	0.86	-0.750			
0.5933	37968.57	3.4700	3.4702	-1.5239	6.85	0.87	-0.750			
0.5978	38259.04	3.4670	3.4668	-1.4996	6.86	0.88	-0.750			
0.6021	38537.47	3.4640	3.4639	-1.4991	6.88	0.90	-0.750			
0.6068	38832.75	3.4610	3.4611	-1.4653	6.89	0.91	-0.750			
0.6112	39118.47	3.4580	3.4577	-1.4431	6.90	0.92	-0.750			
0.6154	39382.48	3.4550	3.4549	-1.4430	6.91	0.93	-0.750			
0.6196	39652.90	3.4520	3.4520	-1.4234	6.92	0.94	-0.750			
0.6239	39930.26	3.4490	3.4486	-1.4301	6.94	0.96	-0.750			
0.6281	40201.22	3.4460	3.4459	-1.4378	6.96	0.98	-0.750			
0.6325	40483.01	3.4430	3.4431	-1.4364	6.97	0.99	-0.750			
0.6369	40762.14	3.4400	3.4398	-1.4123	6.98	1.00	-0.750			
0.6411	41031.72	3.4370	3.4369	-1.3820	6.99	1.01	-0.750			
0.6451	41284.35	3.4340	3.4340	-1.3303	7.00	1.02	-0.750			
0.6491	41543.49	3.4310	3.4309	-1.3124	7.01	1.03	-0.750			
0.6530	41790.50	3.4280	3.4279	-1.2753	7.02	1.04	-0.750			
0.6567	42027.60	3.4250	3.4252	-1.2414	7.03	1.05	-0.750			
0.6605	42270.42	3.4220	3.4219	-1.2299	7.05	1.07	-0.750			
0.6641	42504.14	3.4190	3.4190	-1.1985	7.06	1.08	-0.750			
0.6677	42731.16	3.4160	3.4159	-1.1678	7.08	1.10	-0.750			
0.6711	42952.97	3.4130	3.4130	-1.1484	7.09	1.11	-0.750			
0.6746	43171.71	3.4100	3.4100	-1.1198	7.10	1.12	-0.750			
0.6779	43383.60	3.4070	3.4069	-1.0910	7.12	1.14	-0.750			
0.6811	43588.75	3.4040	3.4043	-1.0593	7.13	1.15	-0.750			
0.6842	43791.65	3.4010	3.4009	-1.0381	7.14	1.16	-0.750			
0.6873	43989.54	3.3980	3.3980	-1.0065	7.15	1.17	-0.750			
0.6903	44178.65	3.3950	3.3949	-0.9758	7.16	1.18	-0.750			
0.6932	44364.48	3.3920	3.3921	-0.9526	7.17	1.19	-0.750			
0.6960	44543.43	3.3890	3.3889	-0.9291	7.18	1.20	-0.750			
0.6987	44717.96	3.3860	3.3860	-0.9040	7.20	1.22	-0.750			
0.7014	44889.72	3.3830	3.3829	-0.8803	7.21	1.23	-0.750			
0.7040	45055.15	3.3800	3.3801	-0.8605	7.22	1.24	-0.750			
0.7066	45221.45	3.3770	3.3772	-0.8406	7.23	1.25	-0.750			
0.7091	45379.50	3.3740	3.3740	-0.8161	7.24	1.26	-0.750			
0.7115	45533.38	3.3710	3.3710	-0.7986	7.25	1.27	-0.750			
0.7138	45684.80	3.3680	3.3679	-0.7743	7.26	1.28	-0.750			
0.7161	45832.36	3.3650	3.3650	-0.7524	7.26	1.28	-0.750			
0.7184	45975.42	3.3620	3.3623	-0.7329	7.27	1.29	-0.750			
0.7205	46113.25	3.3590	3.3589	-0.7105	7.28	1.30	-0.750			
0.7226	46248.68	3.3560	3.3560	-0.6883	7.28	1.30	-0.750			
0.7246	46376.32	3.3530	3.3530	-0.6656	7.29	1.31	-0.750			
0.7266	46502.92	3.3500	3.3500	-0.6473	7.30	1.32	-0.750			
0.7285	46624.82	3.3470	3.3470	-0.6144	7.30	1.32	-0.750			
