Ah_balance (normalized)	Ah_balance (mAh)	Voltage - fit (V)	Voltage -  interpolate (V)	dQ/dV (1/V)	Temperature (°C)	Temperature - diff (°C)	Current (C)	R_DC 0ms (mOhm)	R_DC 50ms (mOhm)	R_DC 50 ms PEC (mOhm)
0.1778	11380.55	4.0820	4.0820	0.6998	7.74	1.75	0.750			
0.1800	11520.56	4.0790	4.0792	0.7440	7.73	1.74	0.750			
0.1823	11667.34	4.0760	4.0760	0.7658	7.73	1.74	0.750			
0.1846	11816.53	4.0730	4.0730	0.7775	7.72	1.73	0.750			
0.1870	11969.13	4.0700	4.0700	0.7869	7.71	1.72	0.750			
0.1894	12121.31	4.0670	4.0670	0.7865	7.70	1.71	0.750			
0.1918	12272.02	4.0640	4.0640	0.7844	7.70	1.71	0.750			
0.1941	12423.26	4.0610	4.0611	0.7858	7.69	1.70	0.750			
0.1965	12573.57	4.0580	4.0579	0.7865	7.68	1.69	0.750			
0.1988	12724.33	4.0550	4.0550	0.7862	7.67	1.68	0.750			
0.2012	12874.26	4.0520	4.0520	0.7891	7.67	1.68	0.750			
0.2035	13025.07	4.0490	4.0491	0.7996	7.66	1.67	0.750			
0.2059	13180.08	4.0460	4.0457	0.8055	7.65	1.66	0.750			
0.2084	13335.55	4.0430	4.0431	0.8078	7.64	1.65	0.750			
0.2108	13493.67	4.0400	4.0400	0.8025	7.63	1.64	0.750			
0.2132	13647.75	4.0370	4.0371	0.8109	7.62	1.63	0.750			
0.2157	13803.19	4.0340	4.0340	0.8156	7.61	1.62	0.750			
0.2181	13956.65	4.0310	4.0308	0.8173	7.60	1.61	0.750			
0.2205	14113.59	4.0280	4.0281	0.8221	7.59	1.60	0.750			
0.2230	14274.80	4.0250	4.0250	0.8230	7.58	1.59	0.750			
0.2255	14433.20	4.0220	4.0220	0.8271	7.57	1.58	0.750			
0.2280	14593.19	4.0190	4.0190	0.8321	7.56	1.57	0.750			
0.2305	14750.09	4.0160	4.0160	0.8292	7.55	1.56	0.750			
0.2330	14909.30	4.0130	4.0130	0.8389	7.54	1.55	0.750			
0.2355	15072.19	4.0100	4.0100	0.8336	7.54	1.55	0.750			
0.2380	15233.13	4.0070	4.0070	0.8412	7.53	1.54	0.750			
0.2406	15396.53	4.0040	4.0041	0.8469	7.52	1.53	0.750			
0.2431	15556.79	4.0010	4.0009	0.8473	7.51	1.52	0.750			
0.2456	15720.31	3.9980	3.9981	0.8502	7.50	1.51	0.750			
0.2482	15882.79	3.9950	3.9949	0.8491	7.49	1.50	0.750			
0.2507	16045.44	3.9920	3.9921	0.8518	7.48	1.49	0.750			
0.2533	16210.27	3.9890	3.9891	0.8539	7.46	1.47	0.750			
0.2558	16373.90	3.9860	3.9856	0.8598	7.45	1.46	0.750			
0.2585	16541.23	3.9830	3.9832	0.8649	7.44	1.45	0.750			
0.2610	16706.91	3.9800	3.9800	0.8675	7.43	1.44	0.750			
0.2637	16874.30	3.9770	3.9770	0.8773	7.43	1.44	0.750			
0.2663	17045.13	3.9740	3.9740	0.8851	7.42	1.43	0.750			
0.2690	17213.78	3.9710	3.9710	0.8855	7.41	1.42	0.750			
0.2716	17384.71	3.9680	3.9680	0.8872	7.40	1.41	0.750			
0.2743	17555.25	3.9650	3.9651	0.8907	7.38	1.39	0.750			
0.2770	17725.99	3.9620	3.9620	0.8989	7.37	1.38	0.750			
0.2797	17899.28	3.9590	3.9590	0.8994	7.36	1.37	0.750			
0.2824	18071.59	3.9560	3.9560	0.9008	7.35	1.36	0.750			
0.2851	18245.68	3.9530	3.9530	0.9036	7.33	1.34	0.750			
0.2878	18418.15	3.9500	3.9501	0.9124	7.32	1.33	0.750			
0.2905	18594.56	3.9470	3.9470	0.9178	7.31	1.32	0.750			
0.2933	18770.29	3.9440	3.9437	0.9245	7.30	1.31	0.750			
0.2960	18947.12	3.9410	3.9412	0.9302	7.29	1.30	0.750			
0.2989	19128.32	3.9380	3.9381	0.9419	7.28	1.29	0.750			
0.3017	19310.28	3.9350	3.9350	0.9523	7.27	1.28	0.750			
0.3046	19492.16	3.9320	3.9320	0.9507	7.26	1.27	0.750			
0.3075	19678.95	3.9290	3.9289	0.9548	7.25	1.26	0.750			
0.3104	19862.88	3.9260	3.9260	0.9675	7.24	1.25	0.750			
0.3132	20047.63	3.9230	3.9231	0.9743	7.23	1.24	0.750			
0.3162	20236.18	3.9200	3.9200	0.9822	7.22	1.23	0.750			
0.3191	20424.14	3.9170	3.9169	0.9867	7.21	1.22	0.750			
0.3221	20614.18	3.9140	3.9141	0.9956	7.19	1.20	0.750			
0.3251	20805.29	3.9110	3.9110	1.0122	7.17	1.18	0.750			
0.3281	21001.48	3.9080	3.9080	1.0270	7.16	1.17	0.750			
0.3312	21199.97	3.9050	3.9046	1.0286	7.14	1.15	0.750			
0.3344	21399.08	3.9020	3.9022	1.0447	7.13	1.14	0.750			
0.3375	21602.04	3.8990	3.8991	1.0582	7.11	1.12	0.750			
0.3407	21806.76	3.8960	3.8959	1.0714	7.10	1.11	0.750			
0.3440	22013.96	3.8930	3.8929	1.0615	7.09	1.10	0.750			
0.3471	22216.23	3.8900	3.8901	1.0803	7.07	1.08	0.750			
0.3504	22426.92	3.8870	3.8870	1.0917	7.06	1.07	0.750			
0.3537	22637.45	3.8840	3.8840	1.1034	7.04	1.05	0.750			
0.3570	22848.72	3.8810	3.8809	1.1042	7.03	1.04	0.750			
0.3603	23060.52	3.8780	3.8783	1.1246	7.01	1.02	0.750			
0.3637	23277.60	3.8750	3.8750	1.1411	6.99	1.00	0.750			
0.3672	23500.35	3.8720	3.8720	1.1592	6.98	0.99	0.750			
0.3707	23722.30	3.8690	3.8691	1.1693	6.96	0.97	0.750			
0.3742	23950.17	3.8660	3.8661	1.1970	6.94	0.95	0.750			
0.3778	24181.27	3.8630	3.8630	1.2104	6.93	0.94	0.750			
0.3815	24414.20	3.8600	3.8601	1.2247	6.91	0.92	0.750			
0.3852	24649.65	3.8570	3.8571	1.2491	6.89	0.90	0.750			
0.3890	24893.37	3.8540	3.8539	1.2721	6.88	0.89	0.750			
0.3928	25142.22	3.8510	3.8508	1.2844	6.86	0.87	0.750			
0.3967	25389.34	3.8480	3.8480	1.3011	6.85	0.86	0.750			
0.4005	25635.01	3.8450	3.8452	1.3415	6.83	0.84	0.750			
0.4047	25899.15	3.8420	3.8419	1.3644	6.82	0.83	0.750			
0.4088	26162.41	3.8390	3.8387	1.4090	6.80	0.81	0.750	0.420	0.934	
0.4131	26435.99	3.8360	3.8362	1.4437	6.78	0.79	0.750			
0.4175	26720.91	3.8330	3.8329	1.4707	6.76	0.77	0.750			
0.4221	27014.26	3.8300	3.8300	1.5030	6.73	0.74	0.750			
0.4265	27298.02	3.8270	3.8270	1.4960	6.71	0.72	0.750			
0.4311	27589.67	3.8240	3.8238	1.5067	6.69	0.70	0.750			
0.4355	27873.93	3.8210	3.8211	1.5252	6.68	0.69	0.750			
0.4402	28172.31	3.8180	3.8180	1.5474	6.66	0.67	0.750			
0.4448	28468.99	3.8150	3.8149	1.5709	6.64	0.65	0.750			
0.4496	28772.13	3.8120	3.8122	1.5993	6.62	0.63	0.750			
0.4544	29084.26	3.8090	3.8091	1.6316	6.60	0.61	0.750			
0.4593	29398.01	3.8060	3.8061	1.6643	6.58	0.59	0.750			
0.4644	29719.06	3.8030	3.8030	1.6800	6.56	0.57	0.750			
0.4696	30055.97	3.8000	3.8000	1.7637	6.55	0.56	0.750			
0.4750	30400.14	3.7970	3.7970	1.7811	6.53	0.54	0.750			
0.4805	30752.02	3.7940	3.7939	1.8072	6.51	0.52	0.750			
0.4860	31102.79	3.7910	3.7910	1.8289	6.49	0.50	0.750			
0.4915	31456.18	3.7880	3.7881	1.8334	6.46	0.47	0.750			
0.4971	31812.99	3.7850	3.7848	1.8702	6.44	0.45	0.750			
0.5026	32168.75	3.7820	3.7822	1.9189	6.41	0.42	0.750			
0.5084	32538.13	3.7790	3.7788	1.9234	6.39	0.40	0.750			
0.5143	32916.24	3.7760	3.7762	1.9464	6.37	0.38	0.750			
0.5202	33292.28	3.7730	3.7730	1.9494	6.35	0.36	0.750			
0.5261	33668.57	3.7700	3.7700	1.9559	6.33	0.34	0.750			
0.5318	34037.15	3.7670	3.7672	1.9362	6.31	0.32	0.750			
0.5378	34420.40	3.7640	3.7640	1.9804	6.29	0.30	0.750			
0.5437	34797.63	3.7610	3.7610	2.0052	6.27	0.28	0.750			
0.5497	35181.43	3.7580	3.7580	2.0356	6.25	0.26	0.750			
0.5558	35572.12	3.7550	3.7549	2.0925	6.22	0.23	0.750			
0.5622	35980.12	3.7520	3.7520	2.1780	6.20	0.21	0.750			
0.5689	36409.91	3.7490	3.7489	2.1871	6.17	0.18	0.750			
0.5755	36831.37	3.7460	3.7460	2.2397	6.15	0.16	0.750			
0.5823	37269.25	3.7430	3.7428	2.2909	6.14	0.15	0.750			
0.5891	37703.66	3.7400	3.7401	2.3306	6.12	0.13	0.750			
0.5963	38163.57	3.7370	3.7370	2.4150	6.10	0.11	0.750			
0.6036	38629.44	3.7340	3.7340	2.4120	6.08	0.09	0.750			
0.6110	39101.71	3.7310	3.7310	2.4705	6.05	0.06	0.750			
0.6184	39577.11	3.7280	3.7279	2.4605	6.03	0.04	0.750			
0.6259	40055.16	3.7250	3.7251	2.4340	6.02	0.03	0.750			
0.6333	40529.46	3.7220	3.7219	2.3721	6.01	0.02	0.750			
0.6401	40967.52	3.7190	3.7189	2.2166	6.00	0.01	0.750			
0.6466	41384.20	3.7160	3.7162	2.0852	5.99	-0.00	0.750			
0.6528	41776.26	3.7130	3.7132	1.9082	5.98	-0.01	0.750			
0.6582	42122.88	3.7100	3.7096	1.7230	5.97	-0.02	0.750			
0.6629	42423.58	3.7070	3.7073	1.5318	5.96	-0.03	0.750			
0.6673	42704.08	3.7040	3.7039	1.3901	5.95	-0.04	0.750			
0.6711	42951.27	3.7010	3.7011	1.2560	5.95	-0.04	0.750			
0.6745	43169.42	3.6980	3.6981	1.1294	5.95	-0.04	0.750			
0.6778	43378.95	3.6950	3.6950	1.0634	5.95	-0.04	0.750			
0.6808	43574.23	3.6920	3.6918	1.0002	5.95	-0.04	0.750			
0.6837	43754.47	3.6890	3.6890	0.9451	5.95	-0.04	0.750			
0.6864	43928.87	3.6860	3.6860	0.9090	5.95	-0.04	0.750			
0.6890	44097.84	3.6830	3.6830	0.8763	5.95	-0.04	0.750			
0.6916	44265.18	3.6800	3.6800	0.8548	5.95	-0.04	0.750			
0.6942	44425.83	3.6770	3.6770	0.8276	5.95	-0.04	0.750			
0.6966	44584.34	3.6740	3.6740	0.7991	5.95	-0.04	0.750			
0.6990	44736.32	3.6710	3.6710	0.7661	5.96	-0.03	0.750			
0.7012	44879.64	3.6680	3.6680	0.7369	5.96	-0.03	0.750			
0.7034	45017.81	3.6650	3.6650	0.7011	5.97	-0.02	0.750			
0.7055	45149.62	3.6620	3.6618	0.6671	5.97	-0.02	0.750			
0.7074	45274.16	3.6590	3.6591	0.6313	5.97	-0.02	0.750			
0.7093	45392.11	3.6560	3.6561	0.5974	5.97	-0.02	0.750			
0.7110	45504.34	3.6530	3.6530	0.5630	5.98	-0.01	0.750			
0.7126	45609.20	3.6500	3.6500	0.5283	5.98	-0.01	0.750			
0.7142	45705.94	3.6470	3.6470	0.4906	5.98	-0.01	0.750			
0.7156	45796.82	3.6440	3.6441	0.4605	5.99	-0.00	0.750			
0.7169	45882.14	3.6410	3.6410	0.4263	5.99	-0.00	0.750			
0.7181	45960.78	3.6380	3.6379	0.3942	5.99	-0.00	0.750			
0.7193	46033.31	3.6350	3.6349	0.3609	5.99	0.00	0.750			
0.7203	46099.75	3.6320	3.6321	0.3291	5.99	0.00	0.750			
0.7212	46159.78	3.6290	3.6290	0.2945	5.99	0.00	0.750			
0.7221	46215.11	3.6260	3.6259	0.2577	6.00	0.01	0.750			
0.7228	46260.91	3.6230	3.6230	0.2179	6.00	0.01	0.750			
0.7234	46300.44	3.6200	3.6199	0.1804	6.00	0.01	0.750			
0.7239	46330.75	3.6170	3.6172	0.1368	6.00	0.01	0.750			
0.7243	46353.82	3.6140	3.6145	0.0929	6.00	0.01	0.750			
0.7245	46368.06	3.6110	3.6118	0.0452	6.00	0.01	0.750			
0.7246	46372.13	3.6080	3.6103	-0.0028	6.00	0.01	0.750			
