Ah_balance (normalized)	Ah_balance (mAh)	Voltage - fit (V)	Voltage -  interpolate (V)	dQ/dV (1/V)	Temperature (°C)	Temperature - diff (°C)	Current (C)	R_DC 0ms (mOhm)	R_DC 50ms (mOhm)	R_DC 50 ms PEC (mOhm)
0.0943	6036.42	4.0060	4.0055	-0.0687	5.99	0.00	-0.750			
0.0946	6053.83	4.0030	4.0026	-0.1009	5.99	0.00	-0.750			
0.0949	6075.87	4.0000	3.9999	-0.1287	5.99	0.00	-0.750			
0.0954	6103.84	3.9970	3.9970	-0.1533	5.99	0.00	-0.750			
0.0959	6135.89	3.9940	3.9941	-0.1774	5.99	0.00	-0.750			
0.0965	6173.64	3.9910	3.9910	-0.2031	5.99	-0.00	-0.750			
0.0971	6214.73	3.9880	3.9880	-0.2248	5.99	-0.00	-0.750			
0.0978	6259.78	3.9850	3.9849	-0.2465	5.99	-0.00	-0.750			
0.0986	6309.37	3.9820	3.9820	-0.2670	5.99	-0.00	-0.750			
0.0994	6362.77	3.9790	3.9790	-0.2890	5.98	-0.01	-0.750			
0.1003	6420.05	3.9760	3.9760	-0.3107	5.98	-0.01	-0.750			
0.1013	6481.68	3.9730	3.9730	-0.3332	5.98	-0.01	-0.750			
0.1023	6547.38	3.9700	3.9700	-0.3545	5.98	-0.01	-0.750			
0.1034	6617.91	3.9670	3.9669	-0.3746	5.98	-0.01	-0.750			
0.1046	6691.90	3.9640	3.9641	-0.3992	5.98	-0.01	-0.750			
0.1058	6771.27	3.9610	3.9609	-0.4202	5.97	-0.02	-0.750			
0.1071	6854.09	3.9580	3.9580	-0.4408	5.97	-0.02	-0.750			
0.1085	6941.41	3.9550	3.9551	-0.4577	5.97	-0.02	-0.750			
0.1099	7031.02	3.9520	3.9520	-0.4759	5.97	-0.02	-0.750			
0.1113	7124.36	3.9490	3.9490	-0.4934	5.97	-0.02	-0.750			
0.1128	7221.12	3.9460	3.9460	-0.5065	5.96	-0.03	-0.750			
0.1144	7319.36	3.9430	3.9430	-0.5145	5.96	-0.03	-0.750			
0.1159	7419.58	3.9400	3.9401	-0.5403	5.96	-0.03	-0.750			
0.1176	7525.43	3.9370	3.9369	-0.5534	5.96	-0.03	-0.750			
0.1193	7634.28	3.9340	3.9337	-0.5689	5.95	-0.04	-0.750			
0.1210	7744.83	3.9310	3.9315	-0.5808	5.95	-0.04	-0.750			
0.1228	7858.57	3.9280	3.9279	-0.5939	5.95	-0.04	-0.750			
0.1246	7974.77	3.9250	3.9249	-0.6035	5.95	-0.04	-0.750			
0.1264	8090.55	3.9220	3.9221	-0.6111	5.95	-0.04	-0.750			
0.1283	8208.24	3.9190	3.9189	-0.6210	5.95	-0.04	-0.750			
0.1301	8328.63	3.9160	3.9160	-0.6299	5.95	-0.04	-0.750			
0.1320	8450.39	3.9130	3.9129	-0.6347	5.95	-0.04	-0.750			
0.1339	8572.74	3.9100	3.9101	-0.6388	5.95	-0.04	-0.750			
0.1359	8697.00	3.9070	3.9070	-0.6447	5.95	-0.04	-0.750			
0.1378	8821.00	3.9040	3.9040	-0.6506	5.96	-0.03	-0.750			
0.1398	8946.16	3.9010	3.9009	-0.6581	5.96	-0.03	-0.750			
0.1418	9072.54	3.8980	3.8980	-0.6622	5.96	-0.03	-0.750			
0.1438	9200.72	3.8950	3.8950	-0.6656	5.97	-0.02	-0.750			
0.1458	9330.15	3.8920	3.8921	-0.6715	5.97	-0.02	-0.750			
0.1478	9459.28	3.8890	3.8890	-0.6722	5.97	-0.02	-0.750			
0.1498	9587.81	3.8860	3.8859	-0.6751	5.97	-0.02	-0.750			
0.1518	9717.11	3.8830	3.8830	-0.6788	5.97	-0.02	-0.750			
0.1539	9847.25	3.8800	3.8799	-0.6817	5.98	-0.01	-0.750			
0.1559	9980.59	3.8770	3.8770	-0.6852	5.98	-0.01	-0.750			
0.1580	10111.93	3.8740	3.8740	-0.6890	5.98	-0.01	-0.750			
0.1601	10244.99	3.8710	3.8710	-0.6902	5.98	-0.01	-0.750			
0.1622	10378.38	3.8680	3.8679	-0.6892	5.99	-0.00	-0.750			
0.1642	10508.88	3.8650	3.8650	-0.6903	5.99	0.00	-0.750			
0.1663	10641.73	3.8620	3.8621	-0.6928	6.00	0.01	-0.750			
0.1684	10775.75	3.8590	3.8589	-0.6954	6.00	0.01	-0.750			
0.1705	10909.76	3.8560	3.8559	-0.6964	6.01	0.02	-0.750			
0.1725	11041.87	3.8530	3.8531	-0.6980	6.01	0.02	-0.750			
0.1746	11177.53	3.8500	3.8500	-0.7022	6.02	0.03	-0.750			
0.1768	11313.44	3.8470	3.8469	-0.7049	6.02	0.03	-0.750			
0.1789	11448.13	3.8440	3.8440	-0.7035	6.02	0.03	-0.750			
0.1810	11584.53	3.8410	3.8411	-0.7045	6.03	0.04	-0.750			
0.1831	11718.90	3.8380	3.8380	-0.7070	6.03	0.04	-0.750			
0.1852	11854.92	3.8350	3.8350	-0.7060	6.04	0.05	-0.750			
0.1873	11989.90	3.8320	3.8319	-0.7044	6.04	0.05	-0.750			
0.1895	12125.19	3.8290	3.8290	-0.7102	6.05	0.06	-0.750			
0.1916	12262.10	3.8260	3.8260	-0.7094	6.06	0.07	-0.750			
0.1937	12399.32	3.8230	3.8229	-0.7102	6.06	0.07	-0.750			
0.1959	12535.66	3.8200	3.8201	-0.7097	6.07	0.08	-0.750			
0.1980	12670.41	3.8170	3.8170	-0.7057	6.07	0.08	-0.750			
0.2001	12806.44	3.8140	3.8139	-0.7102	6.08	0.09	-0.750			
0.2022	12941.99	3.8110	3.8111	-0.7147	6.08	0.09	-0.750			
0.2044	13079.67	3.8080	3.8079	-0.7154	6.08	0.09	-0.750			
0.2066	13219.49	3.8050	3.8050	-0.7211	6.09	0.10	-0.750			
0.2087	13358.32	3.8020	3.8022	-0.7186	6.09	0.10	-0.750			
0.2109	13496.22	3.7990	3.7989	-0.7189	6.10	0.11	-0.750			
0.2130	13633.40	3.7960	3.7960	-0.7222	6.10	0.11	-0.750			
0.2152	13769.76	3.7930	3.7929	-0.7207	6.11	0.12	-0.750			
0.2173	13910.03	3.7900	3.7900	-0.7228	6.12	0.13	-0.750			
0.2195	14048.96	3.7870	3.7870	-0.7223	6.12	0.13	-0.750			
0.2217	14187.12	3.7840	3.7841	-0.7283	6.13	0.14	-0.750			
0.2239	14327.72	3.7810	3.7808	-0.7310	6.13	0.14	-0.750			
0.2260	14466.48	3.7780	3.7780	-0.7366	6.14	0.15	-0.750			
0.2283	14608.99	3.7750	3.7750	-0.7427	6.14	0.15	-0.750			
0.2305	14753.94	3.7720	3.7720	-0.7481	6.15	0.16	-0.750			
0.2328	14898.88	3.7690	3.7690	-0.7504	6.15	0.16	-0.750			
0.2351	15043.49	3.7660	3.7660	-0.7484	6.15	0.16	-0.750			
0.2373	15185.94	3.7630	3.7629	-0.7498	6.16	0.17	-0.750			
0.2395	15329.44	3.7600	3.7601	-0.7551	6.17	0.18	-0.750			
0.2418	15474.14	3.7570	3.7569	-0.7532	6.18	0.19	-0.750			
0.2441	15620.24	3.7540	3.7540	-0.7602	6.18	0.19	-0.750			
0.2463	15766.27	3.7510	3.7512	-0.7640	6.19	0.20	-0.750			
0.2486	15913.33	3.7480	3.7478	-0.7662	6.19	0.20	-0.750			
0.2509	16059.99	3.7450	3.7450	-0.7723	6.20	0.21	-0.750			
0.2532	16207.77	3.7420	3.7420	-0.7759	6.20	0.21	-0.750			
0.2556	16357.62	3.7390	3.7390	-0.7855	6.21	0.22	-0.750			
0.2580	16510.23	3.7360	3.7360	-0.7923	6.21	0.22	-0.750			
0.2603	16662.39	3.7330	3.7330	-0.7937	6.22	0.23	-0.750			
0.2627	16814.53	3.7300	3.7300	-0.8044	6.22	0.23	-0.750			
0.2651	16969.40	3.7270	3.7271	-0.8128	6.23	0.24	-0.750			
0.2676	17125.58	3.7240	3.7239	-0.8190	6.24	0.25	-0.750			
0.2701	17284.94	3.7210	3.7209	-0.8261	6.25	0.26	-0.750			
0.2726	17444.01	3.7180	3.7181	-0.8306	6.25	0.26	-0.750			
0.2751	17605.03	3.7150	3.7150	-0.8387	6.25	0.26	-0.750			
0.2776	17766.92	3.7120	3.7119	-0.8402	6.25	0.26	-0.750			
0.2801	17926.43	3.7090	3.7090	-0.8385	6.25	0.26	-0.750			
0.2826	18088.91	3.7060	3.7060	-0.8421	6.25	0.26	-0.750			
0.2852	18251.10	3.7030	3.7030	-0.8476	6.26	0.27	-0.750			
0.2877	18413.81	3.7000	3.7000	-0.8546	6.26	0.27	-0.750			
0.2903	18577.02	3.6970	3.6969	-0.8606	6.27	0.28	-0.750			
0.2928	18742.35	3.6940	3.6940	-0.8700	6.28	0.29	-0.750			
0.2955	18911.19	3.6910	3.6910	-0.8808	6.29	0.30	-0.750			
0.2983	19088.01	3.6880	3.6879	-0.8610	6.29	0.30	-0.750			
0.3008	19252.18	3.6850	3.6850	-0.8529	6.29	0.30	-0.750			
0.3033	19412.62	3.6820	3.6823	-0.8444	6.29	0.30	-0.750			
0.3058	19570.02	3.6790	3.6787	-0.8521	6.29	0.30	-0.750			
0.3083	19729.18	3.6760	3.6760	-0.8558	6.29	0.30	-0.750			
0.3108	19892.23	3.6730	3.6730	-0.8824	6.29	0.30	-0.750			
0.3135	20067.05	3.6700	3.6701	-0.9073	6.30	0.31	-0.750			
0.3164	20250.07	3.6670	3.6669	-0.9341	6.30	0.31	-0.750			
0.3192	20428.97	3.6640	3.6640	-0.9374	6.31	0.32	-0.750			
0.3221	20612.34	3.6610	3.6610	-0.9461	6.31	0.32	-0.750			
0.3249	20795.00	3.6580	3.6580	-0.9509	6.32	0.33	-0.750			
0.3278	20978.03	3.6550	3.6549	-0.9565	6.32	0.33	-0.750			
0.3306	21158.84	3.6520	3.6521	-0.9628	6.33	0.34	-0.750			
0.3335	21345.87	3.6490	3.6491	-0.9778	6.33	0.34	-0.750			
0.3365	21534.62	3.6460	3.6460	-0.9886	6.33	0.34	-0.750			
0.3395	21726.32	3.6430	3.6429	-0.9989	6.33	0.34	-0.750			
0.3425	21920.77	3.6400	3.6400	-1.0055	6.34	0.35	-0.750			
0.3455	22115.06	3.6370	3.6370	-1.0146	6.34	0.35	-0.750			
0.3486	22309.34	3.6340	3.6340	-1.0203	6.34	0.35	-0.750			
0.3517	22505.90	3.6310	3.6310	-1.0267	6.34	0.35	-0.750			
0.3547	22702.57	3.6280	3.6279	-1.0330	6.35	0.36	-0.750			
0.3578	22901.10	3.6250	3.6251	-1.0429	6.35	0.36	-0.750			
0.3610	23104.16	3.6220	3.6219	-1.0533	6.35	0.36	-0.750			
0.3642	23307.72	3.6190	3.6190	-1.0585	6.35	0.36	-0.750			
0.3673	23510.06	3.6160	3.6160	-1.0637	6.36	0.37	-0.750			
0.3705	23714.35	3.6130	3.6131	-1.0735	6.36	0.37	-0.750			
0.3738	23923.43	3.6100	3.6099	-1.0879	6.37	0.38	-0.750			
0.3771	24134.05	3.6070	3.6069	-1.0930	6.37	0.38	-0.750			
0.3804	24345.50	3.6040	3.6040	-1.0969	6.38	0.39	-0.750			
0.3837	24554.65	3.6010	3.6014	-1.1163	6.39	0.40	-0.750			
0.3871	24773.59	3.5980	3.5979	-1.1183	6.39	0.40	-0.750			
0.3904	24987.40	3.5950	3.5949	-1.1229	6.39	0.40	-0.750			
0.3938	25201.09	3.5920	3.5920	-1.1304	6.39	0.40	-0.750			
0.3972	25422.56	3.5890	3.5890	-1.1476	6.39	0.40	-0.750			
0.4007	25642.35	3.5860	3.5859	-1.1531	6.40	0.41	-0.750	0.461	1.054	
0.4041	25863.87	3.5830	3.5830	-1.1587	6.40	0.41	-0.750			
0.4076	26083.89	3.5800	3.5801	-1.1635	6.41	0.42	-0.750			
0.4112	26313.78	3.5770	3.5769	-1.1914	6.41	0.42	-0.750			
0.4147	26541.13	3.5740	3.5739	-1.1967	6.42	0.43	-0.750			
0.4183	26772.73	3.5710	3.5709	-1.2072	6.43	0.44	-0.750			
0.4220	27006.67	3.5680	3.5681	-1.2194	6.43	0.44	-0.750			
0.4257	27242.75	3.5650	3.5649	-1.2297	6.43	0.44	-0.750			
0.4294	27479.44	3.5620	3.5620	-1.2402	6.43	0.44	-0.750			
0.4330	27713.90	3.5590	3.5589	-1.2498	6.43	0.44	-0.750			
0.4369	27959.79	3.5560	3.5559	-1.2610	6.44	0.45	-0.750			
0.4407	28202.05	3.5530	3.5530	-1.2736	6.44	0.45	-0.750			
0.4445	28446.15	3.5500	3.5501	-1.2910	6.45	0.46	-0.750			
0.4484	28695.14	3.5470	3.5468	-1.2985	6.45	0.46	-0.750			
0.4523	28947.77	3.5440	3.5440	-1.3121	6.46	0.47	-0.750			
0.4563	29200.35	3.5410	3.5410	-1.3235	6.47	0.48	-0.750			
0.4603	29456.02	3.5380	3.5381	-1.3308	6.47	0.48	-0.750			
0.4643	29715.33	3.5350	3.5349	-1.3441	6.47	0.48	-0.750			
0.4685	29981.15	3.5320	3.5318	-1.3170	6.47	0.48	-0.750			
0.4725	30240.87	3.5290	3.5290	-1.2702	6.47	0.48	-0.750			
0.4763	30483.10	3.5260	3.5260	-1.2097	6.48	0.49	-0.750			
0.4798	30704.38	3.5230	3.5236	-1.1753	6.49	0.50	-0.750			
0.4829	30904.10	3.5200	3.5198	-1.1932	6.50	0.51	-0.750			
0.4864	31130.70	3.5170	3.5164	-1.2326	6.50	0.51	-0.750			
0.4901	31369.11	3.5140	3.5138	-1.2603	6.51	0.52	-0.750			
0.4942	31625.98	3.5110	3.5110	-1.3442	6.51	0.52	-0.750			
0.4986	31910.40	3.5080	3.5080	-1.4242	6.51	0.52	-0.750			
0.5030	32192.53	3.5050	3.5047	-1.4218	6.52	0.53	-0.750			
0.5072	32459.79	3.5020	3.5020	-1.4205	6.53	0.54	-0.750			
0.5114	32727.25	3.4990	3.4991	-1.4228	6.53	0.54	-0.750			
0.5158	33011.92	3.4960	3.4959	-1.4383	6.54	0.55	-0.750			
0.5201	33287.16	3.4930	3.4931	-1.4522	6.55	0.56	-0.750			
0.5244	33563.61	3.4900	3.4899	-1.4341	6.56	0.57	-0.750			
0.5288	33844.93	3.4870	3.4869	-1.4403	6.56	0.57	-0.750			
0.5333	34131.88	3.4840	3.4845	-1.4682	6.57	0.58	-0.750			
0.5376	34405.87	3.4810	3.4809	-1.4599	6.58	0.59	-0.750			
0.5420	34687.43	3.4780	3.4777	-1.4607	6.59	0.60	-0.750			
0.5464	34969.82	3.4750	3.4756	-1.4589	6.60	0.61	-0.750			
0.5509	35255.20	3.4720	3.4717	-1.4543	6.61	0.62	-0.750			
0.5551	35526.66	3.4690	3.4689	-1.4767	6.62	0.63	-0.750			
0.5595	35808.68	3.4660	3.4662	-1.4408	6.63	0.64	-0.750			
0.5640	36097.20	3.4630	3.4629	-1.4620	6.65	0.66	-0.750			
0.5683	36372.32	3.4600	3.4602	-1.4607	6.66	0.67	-0.750			
0.5728	36657.93	3.4570	3.4569	-1.4643	6.67	0.68	-0.750			
0.5772	36941.98	3.4540	3.4537	-1.4474	6.68	0.69	-0.750			
0.5815	37215.77	3.4510	3.4505	-1.4371	6.69	0.70	-0.750			
0.5857	37487.62	3.4480	3.4480	-1.4091	6.70	0.71	-0.750			
0.5901	37764.08	3.4450	3.4449	-1.4028	6.71	0.72	-0.750			
0.5941	38025.30	3.4420	3.4420	-1.3810	6.72	0.73	-0.750			
0.5981	38279.47	3.4390	3.4391	-1.3480	6.74	0.75	-0.750			
0.6023	38549.53	3.4360	3.4359	-1.3540	6.75	0.76	-0.750			
0.6063	38804.32	3.4330	3.4330	-1.3618	6.76	0.77	-0.750			
0.6104	39067.56	3.4300	3.4297	-1.3274	6.78	0.79	-0.750			
0.6145	39328.16	3.4270	3.4270	-1.3075	6.80	0.81	-0.750			
0.6184	39580.78	3.4240	3.4238	-1.2695	6.82	0.83	-0.750			
0.6222	39818.75	3.4210	3.4211	-1.2441	6.83	0.84	-0.750			
0.6259	40055.17	3.4180	3.4178	-1.2181	6.85	0.86	-0.750			
0.6294	40279.57	3.4150	3.4149	-1.1935	6.86	0.87	-0.750			
0.6328	40499.34	3.4120	3.4122	-1.1640	6.87	0.88	-0.750			
0.6365	40737.16	3.4090	3.4089	-1.1758	6.88	0.89	-0.750			
0.6401	40966.43	3.4060	3.4059	-1.1540	6.90	0.91	-0.750			
0.6435	41185.59	3.4030	3.4028	-1.1217	6.91	0.92	-0.750			
0.6467	41391.48	3.4000	3.4001	-1.1052	6.92	0.93	-0.750			
0.6501	41606.68	3.3970	3.3967	-1.0677	6.94	0.95	-0.750			
0.6532	41807.90	3.3940	3.3940	-1.0331	6.96	0.97	-0.750			
0.6562	41997.66	3.3910	3.3909	-0.9924	6.98	0.99	-0.750			
0.6593	42195.13	3.3880	3.3877	-0.9872	6.99	1.00	-0.750			
0.6622	42378.70	3.3850	3.3849	-0.9636	7.01	1.02	-0.750			
0.6650	42559.20	3.3820	3.3818	-0.9390	7.02	1.03	-0.750			
0.6678	42737.91	3.3790	3.3790	-0.9240	7.03	1.04	-0.750			
0.6706	42915.99	3.3760	3.3763	-0.8988	7.05	1.06	-0.750			
0.6732	43084.24	3.3730	3.3729	-0.8745	7.06	1.07	-0.750			
0.6758	43248.92	3.3700	3.3699	-0.8525	7.07	1.08	-0.750			
0.6783	43409.95	3.3670	3.3669	-0.8202	7.08	1.09	-0.750			
0.6807	43563.78	3.3640	3.3640	-0.7897	7.10	1.11	-0.750			
0.6830	43715.02	3.3610	3.3616	-0.7794	7.11	1.12	-0.750			
0.6853	43862.34	3.3580	3.3579	-0.7603	7.12	1.13	-0.750			
0.6875	44000.87	3.3550	3.3548	-0.7533	7.13	1.14	-0.750			
0.6897	44143.94	3.3520	3.3519	-0.7403	7.14	1.15	-0.750			
0.6920	44286.01	3.3490	3.3491	-0.7231	7.16	1.17	-0.750			
0.6942	44427.91	3.3460	3.3459	-0.7179	7.17	1.18	-0.750			
0.6964	44567.18	3.3430	3.3433	-0.6999	7.18	1.19	-0.750			
0.6984	44697.88	3.3400	3.3398	-0.6732	7.20	1.21	-0.750			
0.7004	44824.27	3.3370	3.3370	-0.6489	7.21	1.22	-0.750			
0.7022	44941.84	3.3340	3.3341	-0.6247	7.22	1.23	-0.750			
0.7041	45064.51	3.3310	3.3310	-0.6228	7.23	1.24	-0.750			
0.7060	45181.55	3.3280	3.3277	-0.6093	7.24	1.25	-0.750			
0.7077	45295.48	3.3250	3.3250	-0.6185	7.25	1.26	-0.750			
0.7096	45415.12	3.3220	3.3220	-0.6279	7.27	1.28	-0.750			
