Ah_balance (normalized)	Ah_balance (mAh)	Voltage - fit (V)	Voltage -  interpolate (V)	dQ/dV (1/V)	Temperature (°C)	Temperature - diff (°C)	Current (C)	R_DC 0ms (mOhm)	R_DC 50ms (mOhm)	R_DC 50 ms PEC (mOhm)
0.0963	6160.33	4.0050	4.0047	-0.0794	5.99	0.00	-0.750			
0.0965	6178.01	4.0020	4.0019	-0.1070	5.99	0.00	-0.750			
0.0969	6201.30	3.9990	3.9989	-0.1357	5.99	0.00	-0.750			
0.0974	6230.53	3.9960	3.9961	-0.1620	5.99	0.00	-0.750			
0.0979	6264.48	3.9930	3.9929	-0.1866	5.99	0.00	-0.750			
0.0985	6303.54	3.9900	3.9901	-0.2131	5.99	0.00	-0.750			
0.0992	6346.59	3.9870	3.9871	-0.2379	5.99	0.00	-0.750			
0.0999	6394.56	3.9840	3.9840	-0.2618	5.99	0.00	-0.750			
0.1007	6447.35	3.9810	3.9810	-0.2862	5.99	0.00	-0.750			
0.1016	6504.61	3.9780	3.9781	-0.3088	5.99	0.00	-0.750			
0.1026	6566.83	3.9750	3.9750	-0.3316	5.99	0.00	-0.750			
0.1036	6632.58	3.9720	3.9720	-0.3535	5.99	0.00	-0.750			
0.1047	6702.27	3.9690	3.9691	-0.3769	5.99	0.00	-0.750			
0.1059	6777.09	3.9660	3.9659	-0.3982	5.99	0.00	-0.750			
0.1071	6855.48	3.9630	3.9630	-0.4231	5.99	0.00	-0.750			
0.1084	6938.90	3.9600	3.9602	-0.4467	5.99	0.00	-0.750			
0.1098	7027.39	3.9570	3.9569	-0.4708	5.99	-0.00	-0.750			
0.1113	7120.31	3.9540	3.9540	-0.4925	5.99	-0.00	-0.750			
0.1128	7216.38	3.9510	3.9510	-0.5113	5.98	-0.01	-0.750			
0.1143	7316.39	3.9480	3.9480	-0.5312	5.98	-0.01	-0.750			
0.1160	7422.00	3.9450	3.9450	-0.5528	5.98	-0.01	-0.750			
0.1177	7529.64	3.9420	3.9418	-0.5678	5.98	-0.01	-0.750			
0.1194	7641.18	3.9390	3.9391	-0.5846	5.97	-0.02	-0.750			
0.1212	7755.44	3.9360	3.9361	-0.5988	5.97	-0.02	-0.750			
0.1230	7872.78	3.9330	3.9330	-0.6122	5.97	-0.02	-0.750			
0.1249	7991.84	3.9300	3.9300	-0.6217	5.98	-0.01	-0.750			
0.1267	8109.70	3.9270	3.9271	-0.6395	5.98	-0.01	-0.750			
0.1287	8235.13	3.9240	3.9240	-0.6493	5.98	-0.01	-0.750			
0.1306	8361.45	3.9210	3.9209	-0.6585	5.99	-0.00	-0.750			
0.1326	8489.19	3.9180	3.9179	-0.6682	5.99	-0.00	-0.750			
0.1347	8618.61	3.9150	3.9149	-0.6749	5.99	0.00	-0.750			
0.1367	8749.80	3.9120	3.9120	-0.6822	5.99	0.00	-0.750			
0.1388	8880.25	3.9090	3.9090	-0.6878	6.00	0.01	-0.750			
0.1408	9011.01	3.9060	3.9060	-0.6894	6.00	0.01	-0.750			
0.1429	9147.07	3.9030	3.9030	-0.7007	6.00	0.01	-0.750			
0.1450	9282.61	3.9000	3.8999	-0.7029	6.01	0.02	-0.750			
0.1471	9417.41	3.8970	3.8970	-0.7059	6.01	0.02	-0.750			
0.1493	9553.67	3.8940	3.8940	-0.7122	6.02	0.03	-0.750			
0.1514	9690.45	3.8910	3.8911	-0.7181	6.03	0.04	-0.750			
0.1536	9828.77	3.8880	3.8879	-0.7208	6.03	0.04	-0.750			
0.1558	9969.31	3.8850	3.8851	-0.7228	6.04	0.05	-0.750			
0.1580	10108.88	3.8820	3.8820	-0.7243	6.05	0.06	-0.750			
0.1601	10247.14	3.8790	3.8790	-0.7286	6.05	0.06	-0.750			
0.1623	10386.59	3.8760	3.8760	-0.7284	6.06	0.07	-0.750			
0.1645	10526.19	3.8730	3.8728	-0.7350	6.06	0.07	-0.750			
0.1667	10670.36	3.8700	3.8700	-0.7311	6.06	0.07	-0.750			
0.1689	10812.34	3.8670	3.8670	-0.7368	6.07	0.08	-0.750			
0.1711	10952.71	3.8640	3.8644	-0.7395	6.07	0.08	-0.750			
0.1733	11093.83	3.8610	3.8610	-0.7411	6.08	0.09	-0.750			
0.1755	11234.33	3.8580	3.8578	-0.7453	6.08	0.09	-0.750			
0.1778	11378.67	3.8550	3.8550	-0.7477	6.09	0.10	-0.750			
0.1801	11525.16	3.8520	3.8520	-0.7574	6.10	0.11	-0.750			
0.1824	11671.77	3.8490	3.8489	-0.7551	6.11	0.12	-0.750			
0.1846	11816.43	3.8460	3.8461	-0.7511	6.11	0.12	-0.750			
0.1869	11960.15	3.8430	3.8430	-0.7507	6.12	0.13	-0.750			
0.1891	12102.28	3.8400	3.8399	-0.7496	6.13	0.14	-0.750			
0.1913	12245.58	3.8370	3.8371	-0.7493	6.13	0.14	-0.750			
0.1936	12392.01	3.8340	3.8340	-0.7533	6.14	0.15	-0.750			
0.1959	12537.96	3.8310	3.8310	-0.7529	6.15	0.16	-0.750			
0.1982	12682.62	3.8280	3.8280	-0.7567	6.16	0.17	-0.750			
0.2004	12825.47	3.8250	3.8251	-0.7578	6.16	0.17	-0.750			
0.2027	12971.84	3.8220	3.8219	-0.7577	6.17	0.18	-0.750			
0.2050	13117.10	3.8190	3.8190	-0.7600	6.18	0.19	-0.750			
0.2073	13264.43	3.8160	3.8160	-0.7605	6.19	0.20	-0.750			
0.2096	13411.51	3.8130	3.8131	-0.7561	6.19	0.20	-0.750			
0.2118	13556.67	3.8100	3.8100	-0.7566	6.20	0.21	-0.750			
0.2141	13699.89	3.8070	3.8070	-0.7581	6.21	0.22	-0.750			
0.2163	13844.48	3.8040	3.8040	-0.7594	6.21	0.22	-0.750			
0.2186	13992.09	3.8010	3.8009	-0.7622	6.22	0.23	-0.750			
0.2209	14138.61	3.7980	3.7981	-0.7632	6.23	0.24	-0.750			
0.2232	14286.41	3.7950	3.7950	-0.7634	6.24	0.25	-0.750			
0.2255	14433.00	3.7920	3.7919	-0.7668	6.24	0.25	-0.750			
0.2278	14578.69	3.7890	3.7890	-0.7629	6.25	0.26	-0.750			
0.2301	14724.23	3.7860	3.7859	-0.7601	6.26	0.27	-0.750			
0.2324	14871.19	3.7830	3.7830	-0.7660	6.27	0.28	-0.750			
0.2347	15018.68	3.7800	3.7801	-0.7689	6.27	0.28	-0.750			
0.2370	15166.09	3.7770	3.7770	-0.7712	6.29	0.30	-0.750			
0.2393	15314.76	3.7740	3.7740	-0.7736	6.30	0.31	-0.750			
0.2416	15462.65	3.7710	3.7711	-0.7722	6.31	0.32	-0.750			
0.2439	15612.47	3.7680	3.7680	-0.7764	6.32	0.33	-0.750			
0.2463	15762.16	3.7650	3.7652	-0.7767	6.33	0.34	-0.750			
0.2486	15910.22	3.7620	3.7620	-0.7751	6.33	0.34	-0.750			
0.2509	16058.76	3.7590	3.7590	-0.7781	6.34	0.35	-0.750			
0.2533	16208.41	3.7560	3.7560	-0.7800	6.34	0.35	-0.750			
0.2556	16357.46	3.7530	3.7530	-0.7842	6.35	0.36	-0.750			
0.2579	16508.44	3.7500	3.7500	-0.7893	6.35	0.36	-0.750			
0.2603	16661.01	3.7470	3.7470	-0.7934	6.36	0.37	-0.750			
0.2627	16813.60	3.7440	3.7440	-0.8005	6.37	0.38	-0.750			
0.2651	16967.27	3.7410	3.7411	-0.7995	6.38	0.39	-0.750			
0.2675	17120.64	3.7380	3.7381	-0.8036	6.39	0.40	-0.750			
0.2699	17275.43	3.7350	3.7350	-0.8109	6.40	0.41	-0.750			
0.2724	17430.95	3.7320	3.7316	-0.8167	6.41	0.42	-0.750			
0.2748	17587.22	3.7290	3.7291	-0.8252	6.42	0.43	-0.750			
0.2773	17747.73	3.7260	3.7260	-0.8301	6.42	0.43	-0.750			
0.2798	17908.46	3.7230	3.7230	-0.8375	6.42	0.43	-0.750			
0.2824	18071.45	3.7200	3.7199	-0.8426	6.43	0.44	-0.750			
0.2849	18231.31	3.7170	3.7169	-0.8424	6.43	0.44	-0.750			
0.2874	18392.35	3.7140	3.7141	-0.8506	6.44	0.45	-0.750			
0.2899	18556.27	3.7110	3.7109	-0.8550	6.45	0.46	-0.750			
0.2925	18720.64	3.7080	3.7080	-0.8612	6.46	0.47	-0.750			
0.2951	18888.15	3.7050	3.7050	-0.8706	6.47	0.48	-0.750			
0.2977	19054.88	3.7020	3.7020	-0.8792	6.48	0.49	-0.750			
0.3004	19225.94	3.6990	3.6990	-0.8863	6.48	0.49	-0.750			
0.3031	19395.28	3.6960	3.6959	-0.8921	6.49	0.50	-0.750			
0.3057	19566.30	3.6930	3.6931	-0.9007	6.50	0.51	-0.750			
0.3085	19741.98	3.6900	3.6899	-0.9103	6.51	0.52	-0.750			
0.3112	19916.95	3.6870	3.6869	-0.9210	6.51	0.52	-0.750			
0.3140	20095.02	3.6840	3.6840	-0.9285	6.52	0.53	-0.750			
0.3168	20273.24	3.6810	3.6810	-0.9345	6.52	0.53	-0.750			
0.3196	20453.92	3.6780	3.6780	-0.9449	6.53	0.54	-0.750			
0.3224	20635.69	3.6750	3.6750	-0.9539	6.53	0.54	-0.750			
0.3253	20819.49	3.6720	3.6720	-0.9636	6.54	0.55	-0.750			
0.3282	21006.37	3.6690	3.6689	-0.9723	6.55	0.56	-0.750			
0.3312	21193.94	3.6660	3.6660	-0.9756	6.55	0.56	-0.750			
0.3341	21383.86	3.6630	3.6630	-0.9778	6.56	0.57	-0.750			
0.3371	21572.81	3.6600	3.6600	-0.9855	6.56	0.57	-0.750			
0.3400	21759.33	3.6570	3.6570	-0.9937	6.57	0.58	-0.750			
0.3430	21949.27	3.6540	3.6539	-0.9994	6.57	0.58	-0.750			
0.3459	22140.09	3.6510	3.6512	-1.0178	6.57	0.58	-0.750			
0.3490	22337.82	3.6480	3.6479	-1.0364	6.58	0.59	-0.750			
0.3522	22540.85	3.6450	3.6451	-1.0560	6.59	0.60	-0.750			
0.3554	22746.25	3.6420	3.6420	-1.0683	6.60	0.61	-0.750			
0.3587	22955.35	3.6390	3.6391	-1.0825	6.61	0.62	-0.750			
0.3619	23162.85	3.6360	3.6360	-1.0947	6.61	0.62	-0.750			
0.3652	23375.79	3.6330	3.6329	-1.1035	6.62	0.63	-0.750			
0.3685	23586.08	3.6300	3.6299	-1.1084	6.62	0.63	-0.750			
0.3719	23800.60	3.6270	3.6272	-1.1262	6.62	0.63	-0.750			
0.3753	24018.37	3.6240	3.6240	-1.1333	6.62	0.63	-0.750			
0.3787	24239.58	3.6210	3.6209	-1.1391	6.63	0.64	-0.750			
0.3821	24457.51	3.6180	3.6180	-1.1457	6.63	0.64	-0.750			
0.3856	24679.33	3.6150	3.6149	-1.1681	6.63	0.64	-0.750			
0.3891	24905.03	3.6120	3.6118	-1.1697	6.64	0.65	-0.750			
0.3926	25128.82	3.6090	3.6090	-1.1757	6.64	0.65	-0.750			
0.3962	25353.81	3.6060	3.6065	-1.1936	6.65	0.66	-0.750			
0.3998	25588.52	3.6030	3.6028	-1.2200	6.66	0.67	-0.750			
0.4035	25824.62	3.6000	3.5999	-1.2295	6.66	0.67	-0.750			
0.4072	26058.69	3.5970	3.5970	-1.2480	6.67	0.68	-0.750			
0.4110	26304.49	3.5940	3.5939	-1.2616	6.67	0.68	-0.750	0.456	1.050	
0.4148	26549.71	3.5910	3.5908	-1.2642	6.67	0.68	-0.750			
0.4186	26788.43	3.5880	3.5879	-1.2719	6.67	0.68	-0.750			
0.4224	27030.41	3.5850	3.5852	-1.2794	6.67	0.68	-0.750			
0.4262	27277.00	3.5820	3.5819	-1.2898	6.68	0.69	-0.750			
0.4301	27527.90	3.5790	3.5790	-1.3073	6.68	0.69	-0.750			
0.4340	27776.33	3.5760	3.5764	-1.3286	6.69	0.70	-0.750			
0.4381	28040.97	3.5730	3.5728	-1.3507	6.70	0.71	-0.750			
0.4422	28303.34	3.5700	3.5699	-1.3636	6.70	0.71	-0.750			
0.4463	28564.92	3.5670	3.5673	-1.3784	6.71	0.72	-0.750			
0.4505	28832.85	3.5640	3.5639	-1.3935	6.71	0.72	-0.750			
0.4547	29102.47	3.5610	3.5609	-1.4012	6.71	0.72	-0.750			
0.4589	29369.54	3.5580	3.5583	-1.4129	6.71	0.72	-0.750			
0.4632	29643.20	3.5550	3.5550	-1.4354	6.72	0.73	-0.750			
0.4675	29921.41	3.5520	3.5519	-1.4490	6.72	0.73	-0.750			
0.4719	30200.16	3.5490	3.5491	-1.4595	6.73	0.74	-0.750			
0.4763	30481.98	3.5460	3.5461	-1.4901	6.73	0.74	-0.750			
0.4808	30770.43	3.5430	3.5429	-1.4987	6.74	0.75	-0.750			
0.4853	31061.31	3.5400	3.5399	-1.5064	6.74	0.75	-0.750			
0.4898	31350.09	3.5370	3.5370	-1.5159	6.74	0.75	-0.750			
0.4944	31641.22	3.5340	3.5339	-1.5235	6.75	0.76	-0.750			
0.4990	31935.26	3.5310	3.5310	-1.5262	6.75	0.76	-0.750			
0.5036	32230.02	3.5280	3.5278	-1.5448	6.75	0.76	-0.750			
0.5082	32524.54	3.5250	3.5252	-1.5392	6.75	0.76	-0.750			
0.5128	32820.49	3.5220	3.5220	-1.5614	6.76	0.77	-0.750			
0.5176	33126.05	3.5190	3.5189	-1.5760	6.76	0.77	-0.750			
0.5223	33429.03	3.5160	3.5161	-1.5742	6.77	0.78	-0.750			
0.5270	33729.07	3.5130	3.5129	-1.5816	6.77	0.78	-0.750			
0.5318	34037.59	3.5100	3.5098	-1.5921	6.78	0.79	-0.750			
0.5366	34342.77	3.5070	3.5068	-1.5859	6.78	0.79	-0.750			
0.5414	34651.92	3.5040	3.5038	-1.5849	6.77	0.78	-0.750			
0.5462	34955.91	3.5010	3.5013	-1.5752	6.77	0.78	-0.750			
0.5509	35257.47	3.4980	3.4981	-1.5742	6.79	0.80	-0.750			
0.5556	35561.34	3.4950	3.4949	-1.5684	6.80	0.81	-0.750			
0.5603	35860.35	3.4920	3.4920	-1.5686	6.81	0.82	-0.750			
0.5650	36161.61	3.4890	3.4889	-1.5700	6.81	0.82	-0.750			
0.5697	36462.40	3.4860	3.4859	-1.5565	6.81	0.82	-0.750			
0.5744	36761.31	3.4830	3.4829	-1.5418	6.82	0.83	-0.750			
0.5791	37061.41	3.4800	3.4799	-1.5312	6.82	0.83	-0.750			
0.5836	37350.11	3.4770	3.4771	-1.5175	6.83	0.84	-0.750			
0.5881	37640.48	3.4740	3.4738	-1.5031	6.84	0.85	-0.750			
0.5926	37927.93	3.4710	3.4712	-1.4970	6.84	0.85	-0.750			
0.5972	38217.89	3.4680	3.4681	-1.5034	6.85	0.86	-0.750			
0.6017	38509.76	3.4650	3.4649	-1.5014	6.86	0.87	-0.750			
0.6062	38796.53	3.4620	3.4619	-1.4894	6.87	0.88	-0.750			
0.6106	39079.89	3.4590	3.4590	-1.4781	6.88	0.89	-0.750			
0.6151	39365.16	3.4560	3.4559	-1.4640	6.90	0.91	-0.750			
0.6194	39643.26	3.4530	3.4528	-1.4469	6.91	0.92	-0.750			
0.6237	39915.79	3.4500	3.4500	-1.4192	6.92	0.93	-0.750			
0.6280	40191.40	3.4470	3.4470	-1.4096	6.93	0.94	-0.750			
0.6322	40459.34	3.4440	3.4439	-1.3966	6.95	0.96	-0.750			
0.6363	40724.60	3.4410	3.4410	-1.3646	6.95	0.96	-0.750			
0.6404	40987.95	3.4380	3.4379	-1.3464	6.96	0.97	-0.750			
0.6445	41245.30	3.4350	3.4350	-1.3263	6.97	0.98	-0.750			
0.6484	41496.07	3.4320	3.4320	-1.2990	6.98	0.99	-0.750			
0.6523	41745.46	3.4290	3.4289	-1.2737	6.99	1.00	-0.750			
0.6560	41986.37	3.4260	3.4260	-1.2430	7.00	1.01	-0.750			
0.6597	42219.81	3.4230	3.4231	-1.2165	7.01	1.02	-0.750			
0.6634	42454.69	3.4200	3.4199	-1.1956	7.03	1.04	-0.750			
0.6669	42681.58	3.4170	3.4170	-1.1671	7.04	1.05	-0.750			
0.6704	42902.80	3.4140	3.4140	-1.1374	7.05	1.06	-0.750			
0.6737	43119.35	3.4110	3.4110	-1.1156	7.06	1.07	-0.750			
0.6771	43333.14	3.4080	3.4079	-1.0818	7.07	1.08	-0.750			
0.6803	43539.60	3.4050	3.4049	-1.0296	7.09	1.10	-0.750			
0.6833	43731.04	3.4020	3.4023	-0.9872	7.10	1.11	-0.750			
0.6862	43915.31	3.3990	3.3991	-0.9651	7.11	1.12	-0.750			
0.6890	44094.06	3.3960	3.3957	-0.9419	7.11	1.12	-0.750			
0.6917	44268.22	3.3930	3.3929	-0.9203	7.12	1.13	-0.750			
0.6944	44443.74	3.3900	3.3900	-0.9090	7.13	1.14	-0.750			
0.6972	44622.67	3.3870	3.3871	-0.9081	7.14	1.15	-0.750			
0.7000	44799.86	3.3840	3.3839	-0.8897	7.15	1.16	-0.750			
0.7026	44967.23	3.3810	3.3810	-0.8631	7.16	1.17	-0.750			
0.7051	45129.12	3.3780	3.3780	-0.8367	7.17	1.18	-0.750			
0.7076	45288.46	3.3750	3.3750	-0.8168	7.19	1.20	-0.750			
0.7100	45442.49	3.3720	3.3718	-0.7940	7.20	1.21	-0.750			
0.7124	45591.63	3.3690	3.3690	-0.7731	7.21	1.22	-0.750			
0.7147	45738.27	3.3660	3.3660	-0.7532	7.22	1.23	-0.750			
0.7169	45881.63	3.3630	3.3630	-0.7350	7.23	1.24	-0.750			
0.7191	46021.81	3.3600	3.3599	-0.7169	7.24	1.25	-0.750			
0.7212	46155.92	3.3570	3.3572	-0.6998	7.25	1.26	-0.750			
0.7233	46288.77	3.3540	3.3539	-0.6842	7.26	1.27	-0.750			
0.7253	46417.86	3.3510	3.3510	-0.6737	7.27	1.28	-0.750			
0.7273	46546.34	3.3480	3.3480	-0.6661	7.28	1.29	-0.750			
