Ah_balance (normalized)	Ah_balance (mAh)	Voltage - fit (V)	Voltage -  interpolate (V)	dQ/dV (1/V)	Temperature (°C)	Temperature - diff (°C)	Current (C)	R_DC 0ms (mOhm)	R_DC 50ms (mOhm)	R_DC 50 ms PEC (mOhm)
0.0941	6022.95	4.0070	4.0066	-0.0856	5.94	0.00	-0.750			
0.0944	6042.82	4.0040	4.0039	-0.1148	5.94	0.00	-0.750			
0.0948	6067.41	4.0010	4.0009	-0.1413	5.94	0.00	-0.750			
0.0953	6097.40	3.9980	3.9980	-0.1657	5.94	0.00	-0.750			
0.0958	6131.88	3.9950	3.9951	-0.1897	5.94	0.00	-0.750			
0.0964	6171.65	3.9920	3.9920	-0.2140	5.94	0.00	-0.750			
0.0971	6214.73	3.9890	3.9890	-0.2360	5.94	0.00	-0.750			
0.0978	6262.16	3.9860	3.9860	-0.2583	5.94	0.00	-0.750			
0.0987	6313.65	3.9830	3.9830	-0.2808	5.94	-0.00	-0.750			
0.0995	6369.41	3.9800	3.9800	-0.3045	5.94	-0.00	-0.750			
0.1005	6429.71	3.9770	3.9770	-0.3298	5.94	-0.00	-0.750			
0.1015	6495.57	3.9740	3.9740	-0.3532	5.94	-0.00	-0.750			
0.1026	6566.85	3.9710	3.9709	-0.3772	5.94	-0.00	-0.750			
0.1038	6641.54	3.9680	3.9680	-0.4004	5.94	-0.00	-0.750			
0.1050	6720.10	3.9650	3.9651	-0.4250	5.93	-0.01	-0.750			
0.1063	6804.13	3.9620	3.9620	-0.4475	5.93	-0.01	-0.750			
0.1077	6892.03	3.9590	3.9588	-0.4679	5.93	-0.01	-0.750			
0.1091	6984.22	3.9560	3.9560	-0.4893	5.93	-0.01	-0.750			
0.1107	7081.85	3.9530	3.9531	-0.5103	5.93	-0.01	-0.750			
0.1122	7181.60	3.9500	3.9500	-0.5267	5.93	-0.01	-0.750			
0.1138	7284.61	3.9470	3.9470	-0.5428	5.92	-0.02	-0.750			
0.1155	7390.15	3.9440	3.9440	-0.5579	5.92	-0.02	-0.750			
0.1172	7497.91	3.9410	3.9410	-0.5793	5.92	-0.02	-0.750			
0.1189	7611.06	3.9380	3.9380	-0.5972	5.92	-0.02	-0.750			
0.1207	7727.94	3.9350	3.9350	-0.6125	5.91	-0.03	-0.750			
0.1226	7847.32	3.9320	3.9321	-0.6299	5.91	-0.03	-0.750			
0.1245	7971.15	3.9290	3.9290	-0.6446	5.91	-0.03	-0.750			
0.1265	8096.71	3.9260	3.9259	-0.6553	5.91	-0.03	-0.750			
0.1285	8223.26	3.9230	3.9230	-0.6637	5.91	-0.03	-0.750			
0.1305	8351.34	3.9200	3.9201	-0.6695	5.91	-0.03	-0.750			
0.1325	8481.87	3.9170	3.9170	-0.6824	5.91	-0.03	-0.750			
0.1346	8613.49	3.9140	3.9139	-0.6911	5.91	-0.03	-0.750			
0.1367	8745.96	3.9110	3.9110	-0.6962	5.91	-0.03	-0.750			
0.1388	8881.42	3.9080	3.9079	-0.7035	5.92	-0.02	-0.750			
0.1409	9017.41	3.9050	3.9050	-0.7121	5.92	-0.02	-0.750			
0.1430	9154.25	3.9020	3.9021	-0.7168	5.92	-0.02	-0.750			
0.1452	9293.55	3.8990	3.8990	-0.7246	5.93	-0.01	-0.750			
0.1474	9432.84	3.8960	3.8959	-0.7282	5.93	-0.01	-0.750			
0.1496	9573.82	3.8930	3.8930	-0.7341	5.93	-0.01	-0.750			
0.1518	9715.82	3.8900	3.8901	-0.7402	5.94	-0.00	-0.750			
0.1540	9858.65	3.8870	3.8869	-0.7461	5.94	-0.00	-0.750			
0.1563	10002.98	3.8840	3.8839	-0.7457	5.94	0.00	-0.750			
0.1585	10146.47	3.8810	3.8810	-0.7477	5.95	0.01	-0.750			
0.1608	10289.91	3.8780	3.8782	-0.7499	5.95	0.01	-0.750			
0.1630	10435.06	3.8750	3.8749	-0.7521	5.95	0.01	-0.750			
0.1653	10578.96	3.8720	3.8719	-0.7528	5.96	0.02	-0.750			
0.1675	10722.91	3.8690	3.8690	-0.7544	5.96	0.02	-0.750			
0.1698	10869.03	3.8660	3.8660	-0.7598	5.96	0.02	-0.750			
0.1721	11015.08	3.8630	3.8630	-0.7591	5.97	0.03	-0.750			
0.1744	11160.20	3.8600	3.8599	-0.7588	5.97	0.03	-0.750			
0.1766	11302.19	3.8570	3.8571	-0.7753	5.98	0.04	-0.750			
0.1790	11455.65	3.8540	3.8539	-0.7700	5.98	0.04	-0.750			
0.1813	11603.64	3.8510	3.8509	-0.7706	5.98	0.04	-0.750			
0.1836	11753.31	3.8480	3.8479	-0.7731	5.99	0.05	-0.750			
0.1860	11901.79	3.8450	3.8453	-0.7728	5.99	0.05	-0.750			
0.1883	12050.18	3.8420	3.8418	-0.7715	6.00	0.06	-0.750			
0.1906	12195.51	3.8390	3.8390	-0.7721	6.01	0.07	-0.750			
0.1928	12340.68	3.8360	3.8361	-0.7685	6.01	0.07	-0.750			
0.1953	12496.04	3.8330	3.8329	-0.7798	6.02	0.08	-0.750			
0.1976	12643.90	3.8300	3.8300	-0.7763	6.03	0.09	-0.750			
0.1999	12792.85	3.8270	3.8270	-0.7770	6.03	0.09	-0.750			
0.2022	12940.60	3.8240	3.8239	-0.7788	6.04	0.10	-0.750			
0.2045	13089.97	3.8210	3.8209	-0.7818	6.04	0.10	-0.750			
0.2069	13239.33	3.8180	3.8181	-0.7809	6.04	0.10	-0.750			
0.2093	13393.51	3.8150	3.8149	-0.7848	6.05	0.11	-0.750			
0.2116	13544.59	3.8120	3.8120	-0.7845	6.05	0.11	-0.750			
0.2140	13693.32	3.8090	3.8091	-0.7821	6.06	0.12	-0.750			
0.2163	13844.04	3.8060	3.8060	-0.7812	6.07	0.13	-0.750			
0.2186	13993.15	3.8030	3.8029	-0.7764	6.08	0.14	-0.750			
0.2210	14142.24	3.8000	3.8001	-0.7795	6.08	0.14	-0.750			
0.2233	14292.50	3.7970	3.7972	-0.7815	6.09	0.15	-0.750			
0.2257	14442.70	3.7940	3.7939	-0.7807	6.10	0.16	-0.750			
0.2280	14591.57	3.7910	3.7910	-0.7806	6.11	0.17	-0.750			
0.2303	14741.82	3.7880	3.7881	-0.7819	6.11	0.17	-0.750			
0.2327	14893.04	3.7850	3.7849	-0.7862	6.12	0.18	-0.750			
0.2351	15043.98	3.7820	3.7818	-0.7868	6.13	0.19	-0.750			
0.2374	15193.83	3.7790	3.7790	-0.7833	6.14	0.20	-0.750			
0.2398	15344.73	3.7760	3.7760	-0.7850	6.14	0.20	-0.750			
0.2421	15496.13	3.7730	3.7730	-0.7863	6.15	0.21	-0.750			
0.2445	15646.31	3.7700	3.7699	-0.7873	6.16	0.22	-0.750			
0.2468	15797.96	3.7670	3.7670	-0.7886	6.17	0.23	-0.750			
0.2492	15949.45	3.7640	3.7640	-0.7880	6.17	0.23	-0.750			
0.2516	16100.01	3.7610	3.7610	-0.7945	6.18	0.24	-0.750			
0.2540	16254.28	3.7580	3.7580	-0.7951	6.18	0.24	-0.750			
0.2564	16406.85	3.7550	3.7549	-0.7936	6.19	0.25	-0.750			
0.2587	16559.15	3.7520	3.7519	-0.7931	6.20	0.26	-0.750			
0.2611	16710.91	3.7490	3.7491	-0.7946	6.20	0.26	-0.750			
0.2635	16863.34	3.7460	3.7460	-0.8000	6.21	0.27	-0.750			
0.2659	17016.50	3.7430	3.7430	-0.8098	6.22	0.28	-0.750			
0.2683	17173.75	3.7400	3.7399	-0.8099	6.22	0.28	-0.750			
0.2708	17331.75	3.7370	3.7369	-0.8180	6.23	0.29	-0.750			
0.2733	17488.38	3.7340	3.7343	-0.8200	6.24	0.30	-0.750			
0.2757	17646.65	3.7310	3.7309	-0.8214	6.25	0.31	-0.750			
0.2782	17803.78	3.7280	3.7279	-0.8316	6.25	0.31	-0.750			
0.2807	17961.64	3.7250	3.7249	-0.8334	6.26	0.32	-0.750			
0.2832	18124.13	3.7220	3.7220	-0.8474	6.26	0.32	-0.750			
0.2858	18288.83	3.7190	3.7193	-0.8471	6.27	0.33	-0.750			
0.2883	18452.19	3.7160	3.7159	-0.8501	6.28	0.34	-0.750			
0.2909	18615.80	3.7130	3.7131	-0.8474	6.29	0.35	-0.750			
0.2934	18775.08	3.7100	3.7099	-0.8517	6.29	0.35	-0.750			
0.2959	18939.09	3.7070	3.7071	-0.8611	6.30	0.36	-0.750			
0.2985	19103.91	3.7040	3.7039	-0.8711	6.31	0.37	-0.750			
0.3011	19270.28	3.7010	3.7011	-0.8874	6.31	0.37	-0.750			
0.3038	19446.33	3.6980	3.6979	-0.8912	6.32	0.38	-0.750			
0.3065	19618.38	3.6950	3.6950	-0.8957	6.32	0.38	-0.750			
0.3092	19790.35	3.6920	3.6921	-0.9030	6.33	0.39	-0.750			
0.3119	19962.61	3.6890	3.6888	-0.9067	6.33	0.39	-0.750			
0.3146	20136.87	3.6860	3.6859	-0.9198	6.34	0.40	-0.750			
0.3174	20314.49	3.6830	3.6829	-0.9285	6.34	0.40	-0.750			
0.3202	20494.33	3.6800	3.6800	-0.9382	6.35	0.41	-0.750			
0.3231	20678.34	3.6770	3.6773	-0.9550	6.35	0.41	-0.750			
0.3260	20861.46	3.6740	3.6740	-0.9641	6.35	0.41	-0.750			
0.3289	21047.60	3.6710	3.6709	-0.9708	6.36	0.42	-0.750			
0.3318	21234.20	3.6680	3.6679	-0.9769	6.36	0.42	-0.750			
0.3347	21423.08	3.6650	3.6651	-0.9923	6.37	0.43	-0.750			
0.3377	21613.90	3.6620	3.6620	-1.0056	6.38	0.44	-0.750			
0.3408	21809.03	3.6590	3.6590	-1.0173	6.39	0.45	-0.750			
0.3438	22004.91	3.6560	3.6559	-1.0237	6.40	0.46	-0.750			
0.3469	22201.10	3.6530	3.6529	-1.0344	6.41	0.47	-0.750			
0.3500	22403.01	3.6500	3.6500	-1.0523	6.41	0.47	-0.750			
0.3532	22605.38	3.6470	3.6469	-1.0630	6.42	0.48	-0.750			
0.3564	22809.87	3.6440	3.6440	-1.0693	6.42	0.48	-0.750			
0.3597	23019.17	3.6410	3.6409	-1.0844	6.43	0.49	-0.750			
0.3629	23226.89	3.6380	3.6380	-1.0962	6.43	0.49	-0.750			
0.3662	23438.10	3.6350	3.6350	-1.1077	6.43	0.49	-0.750			
0.3695	23650.66	3.6320	3.6319	-1.1149	6.44	0.50	-0.750			
0.3729	23864.89	3.6290	3.6291	-1.1319	6.44	0.50	-0.750			
0.3764	24087.69	3.6260	3.6260	-1.1565	6.44	0.50	-0.750			
0.3799	24314.12	3.6230	3.6230	-1.1666	6.45	0.51	-0.750			
0.3834	24539.70	3.6200	3.6199	-1.1800	6.45	0.51	-0.750			
0.3870	24764.88	3.6170	3.6171	-1.1927	6.45	0.51	-0.750			
0.3906	24996.12	3.6140	3.6139	-1.2039	6.46	0.52	-0.750			
0.3942	25227.52	3.6110	3.6109	-1.2124	6.46	0.52	-0.750			
0.3978	25456.78	3.6080	3.6082	-1.2281	6.47	0.53	-0.750			
0.4016	25701.38	3.6050	3.6050	-1.2611	6.48	0.54	-0.750			
0.4054	25946.79	3.6020	3.6017	-1.2760	6.48	0.54	-0.750			
0.4092	26190.05	3.5990	3.5997	-1.2999	6.49	0.55	-0.750	0.476	1.120	
0.4132	26442.08	3.5960	3.5959	-1.3069	6.49	0.55	-0.750			
0.4172	26699.20	3.5930	3.5929	-1.3246	6.50	0.56	-0.750			
0.4211	26952.49	3.5900	3.5900	-1.3414	6.51	0.57	-0.750			
0.4251	27207.22	3.5870	3.5870	-1.3438	6.51	0.57	-0.750			
0.4292	27471.44	3.5840	3.5839	-1.3655	6.51	0.57	-0.750			
0.4333	27733.21	3.5810	3.5809	-1.3799	6.51	0.57	-0.750			
0.4375	27996.85	3.5780	3.5780	-1.3829	6.51	0.57	-0.750			
0.4417	28268.64	3.5750	3.5750	-1.4035	6.52	0.58	-0.750			
0.4459	28537.48	3.5720	3.5720	-1.4280	6.53	0.59	-0.750			
0.4502	28812.43	3.5690	3.5689	-1.4379	6.53	0.59	-0.750			
0.4546	29091.48	3.5660	3.5659	-1.4690	6.54	0.60	-0.750			
0.4590	29376.70	3.5630	3.5629	-1.4877	6.54	0.60	-0.750			
0.4636	29668.72	3.5600	3.5598	-1.4937	6.54	0.60	-0.750			
0.4681	29957.65	3.5570	3.5568	-1.5133	6.55	0.61	-0.750			
0.4726	30248.46	3.5540	3.5543	-1.5247	6.55	0.61	-0.750			
0.4772	30540.97	3.5510	3.5509	-1.5143	6.56	0.62	-0.750			
0.4818	30833.88	3.5480	3.5478	-1.5507	6.56	0.62	-0.750			
0.4864	31130.27	3.5450	3.5452	-1.5603	6.57	0.63	-0.750			
0.4911	31432.41	3.5420	3.5418	-1.5904	6.57	0.63	-0.750			
0.4959	31739.62	3.5390	3.5390	-1.6044	6.57	0.63	-0.750			
0.5007	32045.03	3.5360	3.5359	-1.6174	6.57	0.63	-0.750			
0.5057	32364.01	3.5330	3.5329	-1.6363	6.58	0.64	-0.750			
0.5106	32677.54	3.5300	3.5301	-1.6388	6.59	0.65	-0.750			
0.5154	32984.46	3.5270	3.5271	-1.6744	6.60	0.66	-0.750			
0.5205	33310.36	3.5240	3.5239	-1.6952	6.61	0.67	-0.750			
0.5256	33640.77	3.5210	3.5207	-1.7081	6.61	0.67	-0.750			
0.5310	33980.87	3.5180	3.5181	-1.7286	6.62	0.68	-0.750			
0.5362	34318.49	3.5150	3.5152	-1.7474	6.63	0.69	-0.750			
0.5414	34649.48	3.5120	3.5121	-1.7202	6.64	0.70	-0.750			
0.5465	34974.48	3.5090	3.5091	-1.7019	6.65	0.71	-0.750			
0.5515	35296.43	3.5060	3.5059	-1.6881	6.66	0.72	-0.750			
0.5567	35626.04	3.5030	3.5029	-1.6840	6.66	0.72	-0.750			
0.5617	35949.01	3.5000	3.5000	-1.6655	6.67	0.73	-0.750			
0.5666	36265.05	3.4970	3.4969	-1.6563	6.67	0.73	-0.750			
0.5716	36582.75	3.4940	3.4940	-1.6376	6.68	0.74	-0.750			
0.5765	36893.90	3.4910	3.4909	-1.6365	6.69	0.75	-0.750			
0.5814	37207.12	3.4880	3.4880	-1.6348	6.71	0.77	-0.750			
0.5863	37523.98	3.4850	3.4850	-1.6200	6.72	0.78	-0.750			
0.5912	37836.68	3.4820	3.4820	-1.6187	6.73	0.79	-0.750			
0.5960	38146.75	3.4790	3.4791	-1.6091	6.74	0.80	-0.750			
0.6009	38459.16	3.4760	3.4760	-1.6020	6.75	0.81	-0.750			
0.6057	38765.36	3.4730	3.4729	-1.5907	6.76	0.82	-0.750			
0.6104	39067.91	3.4700	3.4702	-1.5655	6.77	0.83	-0.750			
0.6151	39369.54	3.4670	3.4670	-1.5465	6.78	0.84	-0.750			
0.6198	39665.32	3.4640	3.4639	-1.5217	6.78	0.84	-0.750			
0.6243	39952.81	3.4610	3.4610	-1.5008	6.79	0.85	-0.750			
0.6287	40239.80	3.4580	3.4580	-1.4882	6.81	0.87	-0.750			
0.6331	40520.45	3.4550	3.4549	-1.4741	6.82	0.88	-0.750			
0.6376	40804.38	3.4520	3.4520	-1.4502	6.83	0.89	-0.750			
0.6420	41085.67	3.4490	3.4489	-1.4310	6.84	0.90	-0.750			
0.6462	41357.36	3.4460	3.4460	-1.4057	6.85	0.91	-0.750			
0.6504	41623.98	3.4430	3.4430	-1.3688	6.86	0.92	-0.750			
0.6545	41885.16	3.4400	3.4399	-1.3423	6.87	0.93	-0.750			
0.6584	42136.36	3.4370	3.4369	-1.3133	6.88	0.94	-0.750			
0.6623	42384.35	3.4340	3.4340	-1.2892	6.89	0.95	-0.750			
0.6661	42633.33	3.4310	3.4310	-1.2704	6.90	0.96	-0.750			
0.6699	42875.14	3.4280	3.4279	-1.2461	6.91	0.97	-0.750			
0.6736	43110.63	3.4250	3.4252	-1.2197	6.91	0.97	-0.750			
0.6773	43346.03	3.4220	3.4219	-1.2013	6.92	0.98	-0.750			
0.6809	43574.55	3.4190	3.4190	-1.1727	6.93	0.99	-0.750			
0.6843	43797.07	3.4160	3.4159	-1.1432	6.95	1.01	-0.750			
0.6877	44013.73	3.4130	3.4130	-1.1190	6.96	1.02	-0.750			
0.6911	44227.25	3.4100	3.4100	-1.0873	6.97	1.03	-0.750			
0.6944	44439.61	3.4070	3.4068	-1.0324	6.98	1.04	-0.750			
0.6974	44634.97	3.4040	3.4041	-0.9689	6.99	1.05	-0.750			
0.7002	44813.26	3.4010	3.4012	-0.9331	7.00	1.06	-0.750			
0.7029	44982.56	3.3980	3.3984	-0.8931	7.01	1.07	-0.750			
0.7053	45141.39	3.3950	3.3945	-0.8603	7.02	1.08	-0.750			
0.7078	45301.03	3.3920	3.3920	-0.8573	7.04	1.10	-0.750			
0.7104	45463.46	3.3890	3.3891	-0.8620	7.05	1.11	-0.750			
0.7130	45634.89	3.3860	3.3861	-0.8650	7.06	1.12	-0.750			
0.7158	45809.46	3.3830	3.3830	-0.8650	7.07	1.13	-0.750			
0.7183	45972.97	3.3800	3.3800	-0.8378	7.07	1.13	-0.750			
0.7208	46133.75	3.3770	3.3770	-0.8147	7.08	1.14	-0.750			
0.7233	46288.76	3.3740	3.3742	-0.7782	7.09	1.15	-0.750			
0.7255	46434.41	3.3710	3.3710	-0.7373	7.10	1.16	-0.750			
