Ah_balance (normalized)	Ah_balance (mAh)	Voltage - fit (V)	Voltage -  interpolate (V)	dQ/dV (1/V)	Temperature (°C)	Temperature - diff (°C)	Current (C)	R_DC 0ms (mOhm)	R_DC 50ms (mOhm)	R_DC 50 ms PEC (mOhm)
0.0940	6017.56	4.0050	4.0045	-0.0760	5.99	0.00	-0.750			
0.0943	6036.02	4.0020	4.0013	-0.1092	5.99	0.00	-0.750			
0.0947	6059.57	3.9990	3.9989	-0.1362	5.99	0.00	-0.750			
0.0951	6088.90	3.9960	3.9959	-0.1624	5.99	0.00	-0.750			
0.0957	6122.54	3.9930	3.9933	-0.1880	5.99	0.00	-0.750			
0.0963	6161.07	3.9900	3.9900	-0.2138	5.99	-0.00	-0.750			
0.0970	6205.67	3.9870	3.9871	-0.2381	5.99	-0.00	-0.750			
0.0977	6253.29	3.9840	3.9840	-0.2627	5.99	-0.00	-0.750			
0.0985	6306.09	3.9810	3.9809	-0.2860	5.98	-0.01	-0.750			
0.0994	6363.27	3.9780	3.9781	-0.3105	5.98	-0.01	-0.750			
0.1004	6424.80	3.9750	3.9749	-0.3351	5.98	-0.01	-0.750			
0.1014	6491.26	3.9720	3.9721	-0.3620	5.98	-0.01	-0.750			
0.1025	6562.69	3.9690	3.9690	-0.3892	5.97	-0.02	-0.750			
0.1038	6640.56	3.9660	3.9660	-0.4181	5.97	-0.02	-0.750			
0.1051	6723.92	3.9630	3.9630	-0.4447	5.97	-0.02	-0.750			
0.1065	6813.18	3.9600	3.9600	-0.4679	5.96	-0.03	-0.750			
0.1079	6905.79	3.9570	3.9569	-0.4912	5.96	-0.03	-0.750			
0.1094	7001.55	3.9540	3.9540	-0.5132	5.96	-0.03	-0.750			
0.1110	7101.71	3.9510	3.9509	-0.5361	5.96	-0.03	-0.750			
0.1126	7206.18	3.9480	3.9480	-0.5562	5.96	-0.03	-0.750			
0.1143	7314.81	3.9450	3.9449	-0.5804	5.96	-0.03	-0.750			
0.1161	7430.57	3.9420	3.9421	-0.6025	5.97	-0.02	-0.750			
0.1180	7549.58	3.9390	3.9389	-0.6187	5.97	-0.02	-0.750			
0.1199	7671.05	3.9360	3.9359	-0.6326	5.97	-0.02	-0.750			
0.1218	7793.82	3.9330	3.9333	-0.6461	5.97	-0.02	-0.750			
0.1237	7919.04	3.9300	3.9299	-0.6559	5.97	-0.02	-0.750			
0.1257	8045.53	3.9270	3.9270	-0.6702	5.97	-0.02	-0.750			
0.1277	8174.72	3.9240	3.9240	-0.6756	5.97	-0.02	-0.750			
0.1298	8307.97	3.9210	3.9209	-0.6901	5.97	-0.02	-0.750			
0.1319	8440.05	3.9180	3.9180	-0.6971	5.97	-0.02	-0.750			
0.1340	8573.86	3.9150	3.9152	-0.7058	5.97	-0.02	-0.750			
0.1361	8709.91	3.9120	3.9119	-0.7138	5.97	-0.02	-0.750			
0.1383	8848.64	3.9090	3.9089	-0.7266	5.98	-0.01	-0.750			
0.1404	8988.13	3.9060	3.9060	-0.7342	5.98	-0.01	-0.750			
0.1427	9133.49	3.9030	3.9030	-0.7384	5.99	-0.00	-0.750			
0.1450	9277.04	3.9000	3.9000	-0.7425	5.99	-0.00	-0.750			
0.1472	9418.64	3.8970	3.8970	-0.7448	5.99	0.00	-0.750			
0.1494	9560.59	3.8940	3.8940	-0.7455	6.00	0.01	-0.750			
0.1516	9704.28	3.8910	3.8909	-0.7504	6.00	0.01	-0.750			
0.1539	9847.94	3.8880	3.8880	-0.7519	6.00	0.01	-0.750			
0.1562	9994.07	3.8850	3.8850	-0.7620	6.01	0.02	-0.750			
0.1585	10142.36	3.8820	3.8821	-0.7658	6.01	0.02	-0.750			
0.1608	10289.43	3.8790	3.8790	-0.7643	6.02	0.03	-0.750			
0.1631	10435.62	3.8760	3.8760	-0.7674	6.03	0.04	-0.750			
0.1654	10582.57	3.8730	3.8730	-0.7700	6.03	0.04	-0.750			
0.1677	10731.94	3.8700	3.8700	-0.7798	6.04	0.05	-0.750			
0.1700	10881.25	3.8670	3.8669	-0.7801	6.05	0.06	-0.750			
0.1724	11031.78	3.8640	3.8639	-0.7812	6.05	0.06	-0.750			
0.1747	11182.84	3.8610	3.8611	-0.7880	6.06	0.07	-0.750			
0.1771	11334.75	3.8580	3.8580	-0.7884	6.06	0.07	-0.750			
0.1795	11486.19	3.8550	3.8550	-0.7837	6.06	0.07	-0.750			
0.1818	11636.19	3.8520	3.8519	-0.7845	6.07	0.08	-0.750			
0.1842	11785.89	3.8490	3.8491	-0.7855	6.07	0.08	-0.750			
0.1865	11937.97	3.8460	3.8460	-0.7881	6.08	0.09	-0.750			
0.1889	12088.82	3.8430	3.8429	-0.7892	6.09	0.10	-0.750			
0.1913	12240.36	3.8400	3.8400	-0.7873	6.10	0.11	-0.750			
0.1936	12392.59	3.8370	3.8370	-0.7910	6.10	0.11	-0.750			
0.1960	12545.33	3.8340	3.8341	-0.7948	6.11	0.12	-0.750			
0.1984	12696.53	3.8310	3.8310	-0.7952	6.11	0.12	-0.750			
0.2008	12849.35	3.8280	3.8279	-0.7990	6.12	0.13	-0.750			
0.2032	13004.75	3.8250	3.8250	-0.7978	6.12	0.13	-0.750			
0.2056	13159.09	3.8220	3.8219	-0.7969	6.13	0.14	-0.750			
0.2080	13311.34	3.8190	3.8193	-0.7995	6.13	0.14	-0.750			
0.2104	13464.30	3.8160	3.8159	-0.7964	6.14	0.15	-0.750			
0.2128	13616.49	3.8130	3.8129	-0.7995	6.14	0.15	-0.750			
0.2151	13768.63	3.8100	3.8100	-0.8008	6.15	0.16	-0.750			
0.2176	13925.84	3.8070	3.8070	-0.8070	6.16	0.17	-0.750			
0.2200	14080.66	3.8040	3.8041	-0.8062	6.17	0.18	-0.750			
0.2224	14236.01	3.8010	3.8009	-0.8040	6.17	0.18	-0.750			
0.2248	14387.67	3.7980	3.7980	-0.8070	6.18	0.19	-0.750			
0.2272	14543.99	3.7950	3.7950	-0.8038	6.19	0.20	-0.750			
0.2296	14697.48	3.7920	3.7920	-0.8011	6.19	0.20	-0.750			
0.2321	14852.78	3.7890	3.7890	-0.8042	6.20	0.21	-0.750			
0.2345	15008.27	3.7860	3.7859	-0.8023	6.20	0.21	-0.750			
0.2369	15160.46	3.7830	3.7829	-0.8014	6.21	0.22	-0.750			
0.2393	15314.29	3.7800	3.7801	-0.8007	6.21	0.22	-0.750			
0.2416	15465.31	3.7770	3.7770	-0.8007	6.22	0.23	-0.750			
0.2441	15621.51	3.7740	3.7740	-0.8110	6.23	0.24	-0.750			
0.2465	15777.25	3.7710	3.7710	-0.8127	6.23	0.24	-0.750			
0.2489	15932.39	3.7680	3.7680	-0.8213	6.24	0.25	-0.750			
0.2515	16095.17	3.7650	3.7650	-0.8172	6.25	0.26	-0.750			
0.2539	16252.35	3.7620	3.7620	-0.8133	6.26	0.27	-0.750			
0.2564	16407.69	3.7590	3.7590	-0.8129	6.26	0.27	-0.750			
0.2588	16561.18	3.7560	3.7561	-0.8075	6.27	0.28	-0.750			
0.2612	16715.12	3.7530	3.7529	-0.8092	6.27	0.28	-0.750			
0.2636	16868.71	3.7500	3.7500	-0.8112	6.28	0.29	-0.750			
0.2660	17024.91	3.7470	3.7470	-0.8108	6.28	0.29	-0.750			
0.2685	17185.20	3.7440	3.7439	-0.8243	6.29	0.30	-0.750			
0.2710	17341.45	3.7410	3.7411	-0.8251	6.29	0.30	-0.750			
0.2734	17500.15	3.7380	3.7379	-0.8273	6.29	0.30	-0.750			
0.2759	17659.61	3.7350	3.7350	-0.8331	6.30	0.31	-0.750			
0.2785	17820.81	3.7320	3.7320	-0.8369	6.30	0.31	-0.750			
0.2810	17982.91	3.7290	3.7290	-0.8366	6.31	0.32	-0.750			
0.2835	18144.07	3.7260	3.7261	-0.8380	6.31	0.32	-0.750			
0.2860	18303.53	3.7230	3.7229	-0.8369	6.32	0.33	-0.750			
0.2885	18463.70	3.7200	3.7200	-0.8402	6.33	0.34	-0.750			
0.2910	18624.64	3.7170	3.7170	-0.8396	6.34	0.35	-0.750			
0.2935	18785.68	3.7140	3.7140	-0.8485	6.34	0.35	-0.750			
0.2961	18948.09	3.7110	3.7111	-0.8557	6.35	0.36	-0.750			
0.2986	19112.26	3.7080	3.7078	-0.8694	6.35	0.36	-0.750			
0.3013	19280.58	3.7050	3.7050	-0.8722	6.36	0.37	-0.750			
0.3039	19448.14	3.7020	3.7020	-0.8836	6.36	0.37	-0.750			
0.3066	19620.59	3.6990	3.6990	-0.8968	6.37	0.38	-0.750			
0.3093	19794.68	3.6960	3.6960	-0.9051	6.37	0.38	-0.750			
0.3120	19967.84	3.6930	3.6929	-0.9173	6.38	0.39	-0.750			
0.3148	20147.33	3.6900	3.6899	-0.9248	6.38	0.39	-0.750			
0.3176	20325.92	3.6870	3.6869	-0.9293	6.39	0.40	-0.750			
0.3204	20505.92	3.6840	3.6845	-0.9406	6.39	0.40	-0.750			
0.3232	20684.66	3.6810	3.6810	-0.9471	6.39	0.40	-0.750			
0.3261	20867.88	3.6780	3.6778	-0.9506	6.40	0.41	-0.750			
0.3289	21048.21	3.6750	3.6750	-0.9551	6.40	0.41	-0.750			
0.3318	21235.04	3.6720	3.6720	-0.9717	6.41	0.42	-0.750			
0.3347	21420.57	3.6690	3.6688	-0.9776	6.41	0.42	-0.750			
0.3377	21609.90	3.6660	3.6660	-0.9907	6.42	0.43	-0.750			
0.3406	21799.59	3.6630	3.6630	-1.0018	6.42	0.43	-0.750			
0.3436	21992.48	3.6600	3.6600	-1.0166	6.43	0.44	-0.750			
0.3467	22190.56	3.6570	3.6570	-1.0437	6.43	0.44	-0.750			
0.3499	22393.94	3.6540	3.6539	-1.0456	6.44	0.45	-0.750			
0.3531	22596.55	3.6510	3.6510	-1.0538	6.44	0.45	-0.750			
0.3562	22799.87	3.6480	3.6480	-1.0577	6.45	0.46	-0.750			
0.3594	23003.00	3.6450	3.6450	-1.0725	6.45	0.46	-0.750			
0.3626	23209.47	3.6420	3.6419	-1.0697	6.45	0.46	-0.750			
0.3658	23414.08	3.6390	3.6390	-1.0763	6.45	0.46	-0.750			
0.3690	23618.31	3.6360	3.6361	-1.0894	6.45	0.46	-0.750			
0.3724	23831.76	3.6330	3.6329	-1.1204	6.45	0.46	-0.750			
0.3757	24046.21	3.6300	3.6299	-1.1349	6.45	0.46	-0.750			
0.3792	24267.03	3.6270	3.6268	-1.1543	6.45	0.46	-0.750			
0.3827	24490.14	3.6240	3.6242	-1.1709	6.45	0.46	-0.750			
0.3863	24723.86	3.6210	3.6209	-1.1945	6.45	0.46	-0.750			
0.3899	24955.94	3.6180	3.6179	-1.2025	6.46	0.47	-0.750			
0.3935	25186.55	3.6150	3.6149	-1.2119	6.46	0.47	-0.750			
0.3972	25418.30	3.6120	3.6119	-1.2216	6.46	0.47	-0.750			
0.4008	25653.04	3.6090	3.6089	-1.2425	6.46	0.47	-0.750			
0.4046	25892.70	3.6060	3.6060	-1.2572	6.46	0.47	-0.750			
0.4084	26135.26	3.6030	3.6032	-1.2661	6.46	0.47	-0.750			
0.4123	26384.93	3.6000	3.5999	-1.2922	6.46	0.47	-0.750			
0.4162	26633.91	3.5970	3.5974	-1.3039	6.47	0.48	-0.750	0.487	1.115	
0.4201	26886.05	3.5940	3.5939	-1.3184	6.47	0.48	-0.750			
0.4241	27144.24	3.5910	3.5908	-1.3292	6.47	0.48	-0.750			
0.4281	27396.97	3.5880	3.5880	-1.3339	6.47	0.48	-0.750			
0.4321	27653.71	3.5850	3.5852	-1.3543	6.47	0.48	-0.750			
0.4362	27914.02	3.5820	3.5818	-1.3669	6.47	0.48	-0.750			
0.4403	28177.85	3.5790	3.5789	-1.3810	6.47	0.48	-0.750			
0.4444	28443.04	3.5760	3.5761	-1.4035	6.47	0.48	-0.750			
0.4486	28712.96	3.5730	3.5729	-1.4231	6.47	0.48	-0.750			
0.4531	28995.46	3.5700	3.5700	-1.4444	6.47	0.48	-0.750			
0.4574	29272.47	3.5670	3.5669	-1.4585	6.47	0.48	-0.750			
0.4617	29551.49	3.5640	3.5641	-1.4792	6.47	0.48	-0.750			
0.4663	29842.63	3.5610	3.5610	-1.4965	6.47	0.48	-0.750			
0.4708	30132.54	3.5580	3.5580	-1.5178	6.47	0.48	-0.750			
0.4754	30423.10	3.5550	3.5552	-1.5470	6.47	0.48	-0.750			
0.4801	30726.85	3.5520	3.5518	-1.5565	6.47	0.48	-0.750			
0.4848	31024.96	3.5490	3.5491	-1.5793	6.47	0.48	-0.750			
0.4896	31332.11	3.5460	3.5459	-1.5801	6.48	0.49	-0.750			
0.4943	31635.76	3.5430	3.5429	-1.5839	6.48	0.49	-0.750			
0.4991	31941.21	3.5400	3.5399	-1.5965	6.48	0.49	-0.750			
0.5039	32250.10	3.5370	3.5370	-1.6233	6.47	0.48	-0.750			
0.5087	32557.72	3.5340	3.5341	-1.6353	6.47	0.48	-0.750			
0.5138	32880.41	3.5310	3.5312	-1.6427	6.48	0.49	-0.750			
0.5187	33195.65	3.5280	3.5280	-1.6533	6.49	0.50	-0.750			
0.5238	33523.37	3.5250	3.5248	-1.6649	6.49	0.50	-0.750			
0.5288	33841.46	3.5220	3.5218	-1.6768	6.49	0.50	-0.750			
0.5338	34161.36	3.5190	3.5192	-1.6835	6.49	0.50	-0.750			
0.5388	34482.00	3.5160	3.5161	-1.6859	6.50	0.51	-0.750			
0.5440	34813.64	3.5130	3.5131	-1.6955	6.51	0.52	-0.750			
0.5490	35137.45	3.5100	3.5098	-1.6812	6.51	0.52	-0.750			
0.5541	35461.05	3.5070	3.5068	-1.6942	6.51	0.52	-0.750			
0.5591	35784.64	3.5040	3.5040	-1.6910	6.51	0.52	-0.750			
0.5641	36104.18	3.5010	3.5011	-1.6931	6.52	0.53	-0.750			
0.5692	36431.34	3.4980	3.4981	-1.6784	6.53	0.54	-0.750			
0.5742	36750.36	3.4950	3.4949	-1.6626	6.53	0.54	-0.750			
0.5793	37072.75	3.4920	3.4919	-1.6890	6.53	0.54	-0.750			
0.5843	37397.94	3.4890	3.4891	-1.6652	6.53	0.54	-0.750			
0.5893	37715.67	3.4860	3.4860	-1.6520	6.53	0.54	-0.750			
0.5942	38031.80	3.4830	3.4832	-1.6302	6.54	0.55	-0.750			
0.5992	38350.87	3.4800	3.4798	-1.6371	6.55	0.56	-0.750			
0.6040	38656.29	3.4770	3.4767	-1.6128	6.56	0.57	-0.750			
0.6087	38959.24	3.4740	3.4741	-1.5895	6.57	0.58	-0.750			
0.6135	39262.74	3.4710	3.4711	-1.5743	6.57	0.58	-0.750			
0.6183	39570.95	3.4680	3.4679	-1.5809	6.58	0.59	-0.750			
0.6230	39874.37	3.4650	3.4647	-1.5506	6.59	0.60	-0.750			
0.6277	40172.42	3.4620	3.4619	-1.5453	6.60	0.61	-0.750			
0.6323	40466.97	3.4590	3.4592	-1.5151	6.61	0.62	-0.750			
0.6368	40757.90	3.4560	3.4558	-1.4875	6.62	0.63	-0.750			
0.6413	41043.40	3.4530	3.4533	-1.4568	6.62	0.63	-0.750			
0.6456	41317.26	3.4500	3.4503	-1.4384	6.63	0.64	-0.750			
0.6498	41590.27	3.4470	3.4468	-1.4052	6.64	0.65	-0.750			
0.6540	41858.30	3.4440	3.4439	-1.3770	6.64	0.65	-0.750			
0.6581	42117.21	3.4410	3.4416	-1.3676	6.65	0.66	-0.750			
0.6622	42382.44	3.4380	3.4377	-1.3517	6.66	0.67	-0.750			
0.6662	42637.74	3.4350	3.4349	-1.3111	6.68	0.69	-0.750			
0.6700	42882.75	3.4320	3.4323	-1.2887	6.69	0.70	-0.750			
0.6739	43132.26	3.4290	3.4290	-1.2710	6.70	0.71	-0.750			
0.6777	43374.47	3.4260	3.4258	-1.2414	6.71	0.72	-0.750			
0.6814	43606.68	3.4230	3.4229	-1.2030	6.72	0.73	-0.750			
0.6849	43832.51	3.4200	3.4200	-1.1737	6.74	0.75	-0.750			
0.6885	44061.77	3.4170	3.4170	-1.1529	6.75	0.76	-0.750			
0.6919	44279.97	3.4140	3.4140	-1.1216	6.77	0.78	-0.750			
0.6951	44489.09	3.4110	3.4111	-1.0799	6.78	0.79	-0.750			
0.6984	44695.18	3.4080	3.4080	-1.0577	6.79	0.80	-0.750			
0.7015	44893.99	3.4050	3.4050	-1.0290	6.80	0.81	-0.750			
0.7045	45087.97	3.4020	3.4020	-1.0040	6.82	0.83	-0.750			
0.7074	45275.60	3.3990	3.3990	-0.9825	6.83	0.84	-0.750			
0.7104	45462.99	3.3960	3.3960	-0.9666	6.84	0.85	-0.750			
0.7133	45649.44	3.3930	3.3928	-0.9381	6.85	0.86	-0.750			
0.7161	45830.09	3.3900	3.3900	-0.9136	6.86	0.87	-0.750			
0.7188	46002.06	3.3870	3.3870	-0.8781	6.86	0.87	-0.750			
0.7214	46168.65	3.3840	3.3841	-0.8497	6.87	0.88	-0.750			
0.7239	46328.11	3.3810	3.3809	-0.8191	6.88	0.89	-0.750			
0.7262	46477.56	3.3780	3.3780	-0.7897	6.89	0.90	-0.750			
0.7285	46624.68	3.3750	3.3750	-0.7850	6.90	0.91	-0.750			
0.7309	46775.11	3.3720	3.3720	-0.7699	6.90	0.91	-0.750			
