Ah_balance (normalized)	Ah_balance (mAh)	Voltage - fit (V)	Voltage -  interpolate (V)	dQ/dV (1/V)	Temperature (°C)	Temperature - diff (°C)	Current (C)	R_DC 0ms (mOhm)	R_DC 50ms (mOhm)	R_DC 50 ms PEC (mOhm)
0.0947	6062.60	4.0050	4.0046	-0.0839	5.99	0.00	-0.750			
0.0950	6082.03	4.0020	4.0018	-0.1140	5.99	0.00	-0.750			
0.0954	6106.54	3.9990	3.9989	-0.1413	5.99	-0.00	-0.750			
0.0959	6136.41	3.9960	3.9960	-0.1680	5.99	-0.00	-0.750			
0.0964	6171.53	3.9930	3.9930	-0.1934	5.99	-0.00	-0.750			
0.0971	6211.91	3.9900	3.9900	-0.2193	5.99	-0.00	-0.750			
0.0978	6256.22	3.9870	3.9870	-0.2438	5.99	-0.00	-0.750			
0.0985	6305.72	3.9840	3.9840	-0.2669	5.98	-0.01	-0.750			
0.0994	6359.35	3.9810	3.9810	-0.2904	5.98	-0.01	-0.750			
0.1003	6416.83	3.9780	3.9780	-0.3156	5.98	-0.01	-0.750			
0.1012	6479.45	3.9750	3.9751	-0.3411	5.98	-0.01	-0.750			
0.1023	6547.20	3.9720	3.9720	-0.3682	5.98	-0.01	-0.750			
0.1035	6620.99	3.9690	3.9689	-0.3935	5.98	-0.01	-0.750			
0.1047	6699.15	3.9660	3.9661	-0.4190	5.97	-0.02	-0.750			
0.1060	6782.84	3.9630	3.9630	-0.4461	5.97	-0.02	-0.750			
0.1073	6870.35	3.9600	3.9601	-0.4709	5.97	-0.02	-0.750			
0.1088	6962.75	3.9570	3.9569	-0.4948	5.97	-0.02	-0.750			
0.1103	7060.36	3.9540	3.9540	-0.5213	5.97	-0.02	-0.750			
0.1119	7163.15	3.9510	3.9510	-0.5459	5.97	-0.02	-0.750			
0.1136	7270.87	3.9480	3.9481	-0.5713	5.97	-0.02	-0.750			
0.1154	7383.80	3.9450	3.9450	-0.5921	5.98	-0.01	-0.750			
0.1172	7499.64	3.9420	3.9420	-0.6117	5.98	-0.01	-0.750			
0.1191	7619.68	3.9390	3.9390	-0.6279	5.98	-0.01	-0.750			
0.1210	7742.33	3.9360	3.9360	-0.6431	5.98	-0.01	-0.750			
0.1229	7867.29	3.9330	3.9330	-0.6578	5.98	-0.01	-0.750			
0.1249	7994.74	3.9300	3.9300	-0.6727	5.98	-0.01	-0.750			
0.1270	8126.26	3.9270	3.9270	-0.6821	5.99	-0.00	-0.750			
0.1290	8258.93	3.9240	3.9240	-0.6921	5.99	-0.00	-0.750			
0.1311	8392.66	3.9210	3.9210	-0.7011	5.99	-0.00	-0.750			
0.1333	8528.45	3.9180	3.9181	-0.7091	5.99	0.00	-0.750			
0.1354	8664.53	3.9150	3.9149	-0.7175	5.99	0.00	-0.750			
0.1375	8801.91	3.9120	3.9120	-0.7293	5.99	0.00	-0.750			
0.1397	8943.51	3.9090	3.9090	-0.7363	6.00	0.01	-0.750			
0.1420	9087.23	3.9060	3.9059	-0.7458	6.00	0.01	-0.750			
0.1443	9232.76	3.9030	3.9030	-0.7512	6.00	0.01	-0.750			
0.1465	9377.39	3.9000	3.9001	-0.7545	6.00	0.01	-0.750			
0.1488	9521.66	3.8970	3.8969	-0.7598	6.01	0.02	-0.750			
0.1511	9667.26	3.8940	3.8941	-0.7625	6.01	0.02	-0.750			
0.1533	9812.86	3.8910	3.8910	-0.7653	6.02	0.03	-0.750			
0.1557	9962.87	3.8880	3.8879	-0.7749	6.03	0.04	-0.750			
0.1580	10111.23	3.8850	3.8851	-0.7747	6.03	0.04	-0.750			
0.1603	10260.16	3.8820	3.8820	-0.7781	6.04	0.05	-0.750			
0.1626	10409.54	3.8790	3.8790	-0.7846	6.05	0.06	-0.750			
0.1650	10561.60	3.8760	3.8758	-0.7856	6.05	0.06	-0.750			
0.1674	10713.15	3.8730	3.8730	-0.7883	6.06	0.07	-0.750			
0.1698	10864.99	3.8700	3.8700	-0.7875	6.07	0.08	-0.750			
0.1721	11016.80	3.8670	3.8670	-0.7917	6.07	0.08	-0.750			
0.1745	11168.36	3.8640	3.8639	-0.7953	6.08	0.09	-0.750			
0.1769	11318.88	3.8610	3.8610	-0.7952	6.08	0.09	-0.750			
0.1793	11472.41	3.8580	3.8580	-0.8015	6.08	0.09	-0.750			
0.1817	11627.83	3.8550	3.8551	-0.8034	6.09	0.10	-0.750			
0.1841	11783.38	3.8520	3.8520	-0.8026	6.09	0.10	-0.750			
0.1865	11937.57	3.8490	3.8490	-0.8048	6.10	0.11	-0.750			
0.1889	12092.21	3.8460	3.8460	-0.8005	6.11	0.12	-0.750			
0.1913	12244.30	3.8430	3.8430	-0.7998	6.12	0.13	-0.750			
0.1937	12397.43	3.8400	3.8400	-0.8063	6.13	0.14	-0.750			
0.1961	12552.58	3.8370	3.8371	-0.8071	6.13	0.14	-0.750			
0.1985	12707.04	3.8340	3.8338	-0.8144	6.14	0.15	-0.750			
0.2010	12864.58	3.8310	3.8310	-0.8162	6.15	0.16	-0.750			
0.2035	13022.48	3.8280	3.8281	-0.8147	6.16	0.17	-0.750			
0.2059	13178.89	3.8250	3.8249	-0.8196	6.16	0.17	-0.750			
0.2084	13336.62	3.8220	3.8220	-0.8169	6.17	0.18	-0.750			
0.2108	13492.22	3.8190	3.8191	-0.8220	6.18	0.19	-0.750			
0.2133	13650.99	3.8160	3.8159	-0.8247	6.19	0.20	-0.750			
0.2158	13808.52	3.8130	3.8131	-0.8206	6.20	0.21	-0.750			
0.2183	13968.48	3.8100	3.8100	-0.8272	6.20	0.21	-0.750			
0.2208	14128.32	3.8070	3.8071	-0.8278	6.21	0.22	-0.750			
0.2232	14285.00	3.8040	3.8039	-0.8262	6.22	0.23	-0.750			
0.2257	14444.10	3.8010	3.8010	-0.8316	6.23	0.24	-0.750			
0.2282	14604.15	3.7980	3.7980	-0.8274	6.24	0.25	-0.750			
0.2307	14764.64	3.7950	3.7949	-0.8306	6.24	0.25	-0.750			
0.2332	14924.57	3.7920	3.7921	-0.8262	6.25	0.26	-0.750			
0.2357	15082.10	3.7890	3.7890	-0.8248	6.25	0.26	-0.750			
0.2381	15240.46	3.7860	3.7860	-0.8287	6.26	0.27	-0.750			
0.2406	15397.65	3.7830	3.7830	-0.8288	6.26	0.27	-0.750			
0.2431	15558.40	3.7800	3.7799	-0.8355	6.27	0.28	-0.750			
0.2456	15720.48	3.7770	3.7771	-0.8337	6.27	0.28	-0.750			
0.2481	15880.94	3.7740	3.7740	-0.8343	6.28	0.29	-0.750			
0.2507	16042.51	3.7710	3.7710	-0.8347	6.29	0.30	-0.750			
0.2532	16201.62	3.7680	3.7681	-0.8315	6.30	0.31	-0.750			
0.2557	16362.14	3.7650	3.7649	-0.8347	6.30	0.31	-0.750			
0.2581	16521.53	3.7620	3.7621	-0.8338	6.31	0.32	-0.750			
0.2606	16681.35	3.7590	3.7590	-0.8355	6.32	0.33	-0.750			
0.2632	16842.65	3.7560	3.7560	-0.8405	6.33	0.34	-0.750			
0.2657	17004.41	3.7530	3.7531	-0.8389	6.34	0.35	-0.750			
0.2682	17167.76	3.7500	3.7499	-0.8448	6.35	0.36	-0.750			
0.2708	17328.07	3.7470	3.7471	-0.8434	6.36	0.37	-0.750			
0.2733	17489.87	3.7440	3.7440	-0.8424	6.37	0.38	-0.750			
0.2758	17651.43	3.7410	3.7409	-0.8477	6.37	0.38	-0.750			
0.2783	17813.87	3.7380	3.7380	-0.8466	6.38	0.39	-0.750			
0.2809	17979.44	3.7350	3.7350	-0.8533	6.39	0.40	-0.750			
0.2835	18143.91	3.7320	3.7320	-0.8552	6.39	0.40	-0.750			
0.2860	18307.05	3.7290	3.7290	-0.8559	6.40	0.41	-0.750			
0.2886	18471.20	3.7260	3.7260	-0.8547	6.41	0.42	-0.750			
0.2912	18634.47	3.7230	3.7229	-0.8530	6.42	0.43	-0.750			
0.2937	18799.22	3.7200	3.7200	-0.8584	6.43	0.44	-0.750			
0.2963	18964.29	3.7170	3.7170	-0.8621	6.43	0.44	-0.750			
0.2989	19129.43	3.7140	3.7140	-0.8684	6.44	0.45	-0.750			
0.3015	19296.07	3.7110	3.7110	-0.8734	6.44	0.45	-0.750			
0.3041	19464.84	3.7080	3.7080	-0.8743	6.44	0.45	-0.750			
0.3068	19634.48	3.7050	3.7050	-0.8832	6.45	0.46	-0.750			
0.3094	19804.21	3.7020	3.7020	-0.8898	6.46	0.47	-0.750			
0.3121	19975.38	3.6990	3.6990	-0.8932	6.46	0.47	-0.750			
0.3148	20146.66	3.6960	3.6959	-0.8997	6.47	0.48	-0.750			
0.3175	20318.77	3.6930	3.6930	-0.9097	6.48	0.49	-0.750			
0.3202	20495.81	3.6900	3.6902	-0.9152	6.49	0.50	-0.750			
0.3230	20670.95	3.6870	3.6871	-0.9317	6.49	0.50	-0.750			
0.3258	20850.76	3.6840	3.6840	-0.9383	6.50	0.51	-0.750			
0.3286	21033.04	3.6810	3.6808	-0.9459	6.50	0.51	-0.750			
0.3315	21215.97	3.6780	3.6780	-0.9572	6.51	0.52	-0.750			
0.3344	21399.97	3.6750	3.6752	-0.9645	6.51	0.52	-0.750			
0.3373	21587.63	3.6720	3.6719	-0.9840	6.52	0.53	-0.750			
0.3403	21779.52	3.6690	3.6689	-0.9967	6.52	0.53	-0.750			
0.3433	21968.50	3.6660	3.6659	-1.0019	6.53	0.54	-0.750			
0.3463	22164.62	3.6630	3.6631	-1.0262	6.53	0.54	-0.750			
0.3494	22363.84	3.6600	3.6599	-1.0325	6.53	0.54	-0.750			
0.3525	22562.05	3.6570	3.6570	-1.0407	6.53	0.54	-0.750			
0.3556	22759.76	3.6540	3.6540	-1.0448	6.53	0.54	-0.750			
0.3588	22963.37	3.6510	3.6511	-1.0696	6.53	0.54	-0.750			
0.3620	23170.41	3.6480	3.6479	-1.0814	6.54	0.55	-0.750			
0.3653	23379.49	3.6450	3.6450	-1.0911	6.54	0.55	-0.750			
0.3686	23589.13	3.6420	3.6420	-1.1048	6.55	0.56	-0.750			
0.3720	23805.07	3.6390	3.6390	-1.1270	6.55	0.56	-0.750			
0.3754	24023.76	3.6360	3.6359	-1.1364	6.55	0.56	-0.750			
0.3788	24242.84	3.6330	3.6329	-1.1489	6.55	0.56	-0.750			
0.3822	24462.57	3.6300	3.6303	-1.1626	6.55	0.56	-0.750			
0.3858	24690.01	3.6270	3.6269	-1.1892	6.56	0.57	-0.750			
0.3894	24920.42	3.6240	3.6238	-1.2069	6.56	0.57	-0.750			
0.3930	25152.62	3.6210	3.6210	-1.2219	6.57	0.58	-0.750			
0.3967	25391.05	3.6180	3.6180	-1.2475	6.57	0.58	-0.750			
0.4005	25632.14	3.6150	3.6150	-1.2570	6.57	0.58	-0.750			
0.4043	25874.69	3.6120	3.6120	-1.2680	6.57	0.58	-0.750			
0.4080	26115.12	3.6090	3.6092	-1.2837	6.57	0.58	-0.750			
0.4120	26367.84	3.6060	3.6060	-1.3079	6.57	0.58	-0.750			
0.4159	26620.58	3.6030	3.6029	-1.3197	6.57	0.58	-0.750			
0.4199	26875.45	3.6000	3.6003	-1.3405	6.57	0.58	-0.750	0.492	1.129	
0.4240	27134.73	3.5970	3.5970	-1.3584	6.58	0.59	-0.750			
0.4281	27397.44	3.5940	3.5939	-1.3784	6.58	0.59	-0.750			
0.4322	27663.45	3.5910	3.5911	-1.3878	6.59	0.60	-0.750			
0.4364	27932.45	3.5880	3.5880	-1.4071	6.59	0.60	-0.750			
0.4407	28202.33	3.5850	3.5850	-1.4276	6.59	0.60	-0.750			
0.4450	28479.67	3.5820	3.5820	-1.4507	6.59	0.60	-0.750			
0.4493	28758.20	3.5790	3.5789	-1.4709	6.59	0.60	-0.750			
0.4538	29044.06	3.5760	3.5760	-1.4974	6.59	0.60	-0.750			
0.4583	29334.28	3.5730	3.5731	-1.5147	6.59	0.60	-0.750			
0.4629	29628.58	3.5700	3.5701	-1.5340	6.59	0.60	-0.750			
0.4676	29926.03	3.5670	3.5668	-1.5425	6.59	0.60	-0.750			
0.4722	30220.92	3.5640	3.5638	-1.5584	6.59	0.60	-0.750			
0.4769	30521.01	3.5610	3.5610	-1.5872	6.60	0.61	-0.750			
0.4817	30827.42	3.5580	3.5581	-1.5994	6.60	0.61	-0.750			
0.4865	31134.17	3.5550	3.5549	-1.6123	6.60	0.61	-0.750			
0.4914	31450.62	3.5520	3.5520	-1.6368	6.59	0.60	-0.750			
0.4964	31769.78	3.5490	3.5490	-1.6590	6.59	0.60	-0.750			
0.5014	32089.85	3.5460	3.5461	-1.6803	6.60	0.61	-0.750			
0.5065	32413.81	3.5430	3.5431	-1.6870	6.61	0.62	-0.750			
0.5115	32739.04	3.5400	3.5400	-1.6978	6.61	0.62	-0.750			
0.5167	33068.14	3.5370	3.5369	-1.7130	6.61	0.62	-0.750			
0.5218	33395.58	3.5340	3.5339	-1.7204	6.61	0.62	-0.750			
0.5269	33722.72	3.5310	3.5311	-1.7381	6.61	0.62	-0.750			
0.5322	34057.97	3.5280	3.5278	-1.7530	6.61	0.62	-0.750			
0.5375	34400.74	3.5250	3.5249	-1.7688	6.61	0.62	-0.750			
0.5429	34746.88	3.5220	3.5221	-1.7757	6.61	0.62	-0.750			
0.5483	35088.20	3.5190	3.5190	-1.7834	6.62	0.63	-0.750			
0.5536	35433.33	3.5160	3.5161	-1.7656	6.62	0.63	-0.750			
0.5589	35772.29	3.5130	3.5129	-1.7610	6.63	0.64	-0.750			
0.5641	36101.51	3.5100	3.5101	-1.7592	6.63	0.64	-0.750			
0.5694	36440.26	3.5070	3.5069	-1.7618	6.63	0.64	-0.750			
0.5747	36780.43	3.5040	3.5039	-1.7548	6.64	0.65	-0.750			
0.5800	37122.32	3.5010	3.5010	-1.7506	6.65	0.66	-0.750			
0.5853	37458.54	3.4980	3.4980	-1.7311	6.65	0.66	-0.750			
0.5905	37792.56	3.4950	3.4949	-1.7197	6.65	0.66	-0.750			
0.5955	38115.06	3.4920	3.4922	-1.6878	6.65	0.66	-0.750			
0.6005	38431.04	3.4890	3.4891	-1.6816	6.66	0.67	-0.750			
0.6055	38754.10	3.4860	3.4858	-1.6743	6.67	0.68	-0.750			
0.6106	39078.04	3.4830	3.4830	-1.6780	6.67	0.68	-0.750			
0.6156	39401.21	3.4800	3.4801	-1.6837	6.67	0.68	-0.750			
0.6208	39728.76	3.4770	3.4771	-1.6572	6.67	0.68	-0.750			
0.6258	40051.66	3.4740	3.4742	-1.6520	6.69	0.70	-0.750			
0.6307	40362.35	3.4710	3.4710	-1.6063	6.70	0.71	-0.750			
0.6354	40665.83	3.4680	3.4679	-1.5857	6.71	0.72	-0.750			
0.6402	40970.29	3.4650	3.4650	-1.5619	6.72	0.73	-0.750			
0.6448	41266.94	3.4620	3.4620	-1.5451	6.73	0.74	-0.750			
0.6494	41561.07	3.4590	3.4590	-1.5144	6.74	0.75	-0.750			
0.6539	41852.46	3.4560	3.4559	-1.4934	6.75	0.76	-0.750			
0.6583	42134.38	3.4530	3.4531	-1.4640	6.76	0.77	-0.750			
0.6628	42416.13	3.4500	3.4499	-1.4387	6.77	0.78	-0.750			
0.6670	42686.82	3.4470	3.4470	-1.4032	6.78	0.79	-0.750			
0.6712	42956.76	3.4440	3.4441	-1.3797	6.79	0.80	-0.750			
0.6753	43219.10	3.4410	3.4410	-1.3537	6.80	0.81	-0.750			
0.6793	43476.51	3.4380	3.4379	-1.3245	6.80	0.81	-0.750			
0.6832	43725.54	3.4350	3.4350	-1.2913	6.81	0.82	-0.750			
0.6871	43975.54	3.4320	3.4320	-1.2657	6.82	0.83	-0.750			
0.6909	44214.99	3.4290	3.4290	-1.2363	6.84	0.85	-0.750			
0.6945	44448.71	3.4260	3.4262	-1.2029	6.85	0.86	-0.750			
0.6981	44676.76	3.4230	3.4229	-1.1736	6.86	0.87	-0.750			
0.7015	44899.18	3.4200	3.4199	-1.1410	6.87	0.88	-0.750			
0.7049	45114.68	3.4170	3.4170	-1.1103	6.88	0.89	-0.750			
0.7082	45323.88	3.4140	3.4141	-1.0867	6.89	0.90	-0.750			
0.7115	45533.46	3.4110	3.4110	-1.0602	6.90	0.91	-0.750			
0.7146	45732.61	3.4080	3.4079	-1.0275	6.91	0.92	-0.750			
0.7176	45925.86	3.4050	3.4051	-0.9992	6.92	0.93	-0.750			
0.7206	46117.36	3.4020	3.4021	-0.9717	6.93	0.94	-0.750			
0.7234	46299.22	3.3990	3.3990	-0.9446	6.95	0.96	-0.750			
0.7262	46477.30	3.3960	3.3960	-0.9144	6.96	0.97	-0.750			
0.7289	46649.56	3.3930	3.3928	-0.8874	6.97	0.98	-0.750			
0.7316	46819.61	3.3900	3.3901	-0.8634	6.99	1.00	-0.750			
0.7341	46982.17	3.3870	3.3869	-0.8355	7.00	1.01	-0.750			
0.7366	47140.59	3.3840	3.3840	-0.8070	7.01	1.02	-0.750			
0.7390	47293.86	3.3810	3.3810	-0.7694	7.02	1.03	-0.750			
0.7412	47439.62	3.3780	3.3780	-0.7826	7.03	1.04	-0.750			
