Ah_balance (normalized)	Ah_balance (mAh)	Voltage - fit (V)	Voltage -  interpolate (V)	dQ/dV (1/V)	Temperature (°C)	Temperature - diff (°C)	Current (C)	R_DC 0ms (mOhm)	R_DC 50ms (mOhm)	R_DC 50 ms PEC (mOhm)
0.1894	12121.11	4.0800	4.0801	0.8378	7.49	1.51	0.750			
0.1919	12280.51	4.0770	4.0770	0.8270	7.49	1.51	0.750			
0.1944	12438.46	4.0740	4.0740	0.8196	7.48	1.50	0.750			
0.1968	12593.07	4.0710	4.0711	0.8164	7.48	1.50	0.750			
0.1992	12749.31	4.0680	4.0679	0.8169	7.48	1.50	0.750			
0.2017	12907.04	4.0650	4.0650	0.8180	7.48	1.50	0.750			
0.2041	13064.64	4.0620	4.0619	0.8111	7.47	1.49	0.750			
0.2066	13219.63	4.0590	4.0591	0.8206	7.46	1.48	0.750			
0.2090	13377.17	4.0560	4.0561	0.8264	7.46	1.48	0.750			
0.2115	13535.60	4.0530	4.0528	0.8292	7.45	1.47	0.750			
0.2140	13694.49	4.0500	4.0501	0.8331	7.45	1.47	0.750			
0.2165	13856.44	4.0470	4.0470	0.8309	7.45	1.47	0.750			
0.2190	14016.06	4.0440	4.0441	0.8388	7.45	1.47	0.750			
0.2215	14177.03	4.0410	4.0410	0.8375	7.45	1.47	0.750			
0.2240	14338.77	4.0380	4.0379	0.8408	7.45	1.47	0.750			
0.2266	14500.66	4.0350	4.0351	0.8436	7.45	1.47	0.750			
0.2291	14663.33	4.0320	4.0320	0.8473	7.44	1.46	0.750			
0.2317	14826.10	4.0290	4.0290	0.8504	7.44	1.46	0.750			
0.2342	14989.03	4.0260	4.0260	0.8495	7.43	1.45	0.750			
0.2368	15152.64	4.0230	4.0228	0.8532	7.43	1.45	0.750			
0.2393	15317.90	4.0200	4.0201	0.8564	7.43	1.45	0.750			
0.2419	15482.81	4.0170	4.0170	0.8600	7.42	1.44	0.750			
0.2445	15648.66	4.0140	4.0140	0.8647	7.42	1.44	0.750			
0.2471	15814.56	4.0110	4.0110	0.8673	7.41	1.43	0.750			
0.2497	15979.74	4.0080	4.0079	0.8678	7.41	1.43	0.750			
0.2523	16147.99	4.0050	4.0050	0.8687	7.41	1.43	0.750			
0.2549	16315.32	4.0020	4.0020	0.8726	7.40	1.42	0.750			
0.2575	16482.10	3.9990	3.9991	0.8773	7.40	1.42	0.750			
0.2602	16651.02	3.9960	3.9960	0.8818	7.39	1.41	0.750			
0.2628	16819.74	3.9930	3.9930	0.8851	7.39	1.41	0.750			
0.2655	16991.91	3.9900	3.9900	0.8853	7.38	1.40	0.750			
0.2682	17161.90	3.9870	3.9870	0.8914	7.38	1.40	0.750			
0.2708	17333.64	3.9840	3.9841	0.8942	7.38	1.40	0.750			
0.2735	17504.80	3.9810	3.9809	0.8967	7.37	1.39	0.750			
0.2762	17676.84	3.9780	3.9780	0.9011	7.37	1.39	0.750			
0.2789	17850.01	3.9750	3.9750	0.9023	7.36	1.38	0.750			
0.2816	18022.74	3.9720	3.9721	0.9090	7.36	1.38	0.750			
0.2844	18199.64	3.9690	3.9690	0.9168	7.35	1.37	0.750			
0.2871	18373.89	3.9660	3.9658	0.9215	7.35	1.37	0.750			
0.2899	18552.72	3.9630	3.9629	0.9230	7.35	1.37	0.750			
0.2927	18729.63	3.9600	3.9601	0.9325	7.34	1.36	0.750			
0.2955	18910.95	3.9570	3.9570	0.9400	7.34	1.36	0.750			
0.2983	19091.66	3.9540	3.9540	0.9426	7.33	1.35	0.750			
0.3012	19274.04	3.9510	3.9510	0.9481	7.33	1.35	0.750			
0.3040	19456.22	3.9480	3.9481	0.9544	7.32	1.34	0.750			
0.3069	19639.15	3.9450	3.9450	0.9604	7.31	1.33	0.750			
0.3098	19825.42	3.9420	3.9420	0.9693	7.30	1.32	0.750			
0.3127	20009.88	3.9390	3.9390	0.9725	7.29	1.31	0.750			
0.3156	20198.03	3.9360	3.9360	0.9788	7.28	1.30	0.750			
0.3185	20386.85	3.9330	3.9330	0.9858	7.27	1.29	0.750			
0.3215	20576.23	3.9300	3.9300	0.9939	7.27	1.29	0.750			
0.3245	20766.60	3.9270	3.9269	1.0069	7.26	1.28	0.750			
0.3275	20961.07	3.9240	3.9240	1.0117	7.25	1.27	0.750			
0.3306	21157.21	3.9210	3.9210	1.0220	7.24	1.26	0.750			
0.3337	21354.97	3.9180	3.9180	1.0307	7.23	1.25	0.750			
0.3367	21550.23	3.9150	3.9149	1.0530	7.22	1.24	0.750			
0.3399	21755.83	3.9120	3.9121	1.0653	7.21	1.23	0.750			
0.3432	21967.86	3.9090	3.9088	1.0543	7.21	1.23	0.750			
0.3464	22172.19	3.9060	3.9056	1.0506	7.20	1.22	0.750			
0.3495	22371.10	3.9030	3.9037	1.0541	7.19	1.21	0.750			
0.3527	22571.10	3.9000	3.8997	1.0582	7.18	1.20	0.750			
0.3558	22768.93	3.8970	3.8967	1.0622	7.17	1.19	0.750			
0.3589	22969.63	3.8940	3.8940	1.0831	7.15	1.17	0.750			
0.3623	23184.75	3.8910	3.8910	1.1245	7.14	1.16	0.750			
0.3657	23402.50	3.8880	3.8880	1.1455	7.13	1.15	0.750			
0.3691	23624.76	3.8850	3.8850	1.1569	7.12	1.14	0.750			
0.3726	23848.48	3.8820	3.8821	1.1673	7.11	1.13	0.750			
0.3762	24075.16	3.8790	3.8790	1.1773	7.10	1.12	0.750			
0.3797	24300.18	3.8760	3.8761	1.1840	7.09	1.11	0.750			
0.3832	24527.12	3.8730	3.8730	1.2030	7.08	1.10	0.750			
0.3869	24761.30	3.8700	3.8697	1.2153	7.06	1.08	0.750			
0.3905	24992.10	3.8670	3.8670	1.2354	7.05	1.07	0.750			
0.3943	25232.30	3.8640	3.8642	1.2653	7.04	1.06	0.750			
0.3981	25481.06	3.8610	3.8609	1.2846	7.03	1.05	0.750			
0.4020	25730.08	3.8580	3.8580	1.3072	7.02	1.04	0.750			
0.4059	25978.19	3.8550	3.8551	1.3406	7.01	1.03	0.750			
0.4100	26240.43	3.8520	3.8520	1.3623	7.00	1.02	0.750			
0.4141	26504.59	3.8490	3.8490	1.4113	6.98	1.00	0.750			
0.4184	26778.20	3.8460	3.8460	1.4397	6.97	0.99	0.750	0.453	1.079	
0.4228	27060.18	3.8430	3.8430	1.4639	6.96	0.98	0.750			
0.4273	27346.35	3.8400	3.8401	1.4855	6.94	0.96	0.750			
0.4317	27631.25	3.8370	3.8372	1.5180	6.93	0.95	0.750			
0.4364	27926.45	3.8340	3.8339	1.5303	6.91	0.93	0.750			
0.4409	28217.13	3.8310	3.8311	1.5549	6.89	0.91	0.750			
0.4456	28519.00	3.8280	3.8281	1.5891	6.88	0.90	0.750			
0.4505	28833.21	3.8250	3.8251	1.6234	6.86	0.88	0.750			
0.4555	29148.93	3.8220	3.8221	1.6431	6.85	0.87	0.750			
0.4604	29468.70	3.8190	3.8190	1.6744	6.83	0.85	0.750			
0.4655	29793.36	3.8160	3.8159	1.7050	6.82	0.84	0.750			
0.4706	30119.71	3.8130	3.8130	1.7373	6.80	0.82	0.750			
0.4759	30458.66	3.8100	3.8100	1.8101	6.77	0.79	0.750			
0.4814	30808.41	3.8070	3.8070	1.8611	6.75	0.77	0.750			
0.4871	31176.02	3.8040	3.8039	1.9261	6.73	0.75	0.750			
0.4929	31547.81	3.8010	3.8007	1.9495	6.71	0.73	0.750			
0.4988	31925.44	3.7980	3.7980	1.9839	6.69	0.71	0.750			
0.5048	32306.47	3.7950	3.7951	2.0245	6.67	0.69	0.750			
0.5109	32694.88	3.7920	3.7920	2.0816	6.64	0.66	0.750			
0.5174	33114.28	3.7890	3.7889	2.1585	6.60	0.62	0.750			
0.5241	33542.60	3.7860	3.7858	2.1891	6.55	0.57	0.750			
0.5307	33962.64	3.7830	3.7834	2.2020	6.53	0.55	0.750			
0.5372	34378.93	3.7800	3.7798	2.1892	6.51	0.53	0.750			
0.5436	34791.84	3.7770	3.7769	2.2094	6.48	0.50	0.750			
0.5505	35234.69	3.7740	3.7740	2.2738	6.45	0.47	0.750			
0.5573	35666.77	3.7710	3.7710	2.2698	6.42	0.44	0.750			
0.5641	36104.81	3.7680	3.7680	2.3088	6.39	0.41	0.750			
0.5712	36554.67	3.7650	3.7649	2.3614	6.36	0.38	0.750			
0.5783	37014.36	3.7620	3.7620	2.4015	6.33	0.35	0.750			
0.5855	37474.89	3.7590	3.7591	2.5061	6.30	0.32	0.750			
0.5933	37968.89	3.7560	3.7558	2.5714	6.27	0.29	0.750			
0.6012	38475.86	3.7530	3.7531	2.6180	6.24	0.26	0.750			
0.6089	38968.17	3.7500	3.7500	2.6722	6.21	0.23	0.750			
0.6168	39472.48	3.7470	3.7470	2.7820	6.18	0.20	0.750			
0.6255	40033.02	3.7440	3.7440	3.0110	6.15	0.17	0.750			
0.6349	40632.69	3.7410	3.7411	3.1526	6.12	0.14	0.750			
0.6446	41257.45	3.7380	3.7379	3.3039	6.08	0.10	0.750			
0.6545	41888.45	3.7350	3.7350	3.3332	6.05	0.07	0.750			
0.6647	42540.18	3.7320	3.7319	3.3737	6.03	0.05	0.750			
0.6749	43195.79	3.7290	3.7290	3.2697	6.01	0.03	0.750			
0.6845	43807.56	3.7260	3.7260	2.9338	5.99	0.01	0.750			
0.6926	44327.10	3.7230	3.7229	2.4715	5.98	0.00	0.750			
0.6993	44755.80	3.7200	3.7202	2.0579	5.97	-0.01	0.750			
0.7047	45100.03	3.7170	3.7172	1.7197	5.97	-0.01	0.750			
0.7093	45395.38	3.7140	3.7140	1.4810	5.96	-0.02	0.750			
0.7131	45636.18	3.7110	3.7108	1.2451	5.96	-0.02	0.750			
0.7164	45849.58	3.7080	3.7081	1.0934	5.96	-0.02	0.750			
0.7193	46033.64	3.7050	3.7050	0.9542	5.97	-0.01	0.750			
0.7219	46201.38	3.7020	3.7019	0.8704	5.97	-0.01	0.750			
0.7243	46354.96	3.6990	3.6987	0.7871	5.97	-0.01	0.750			
0.7265	46496.47	3.6960	3.6960	0.7210	5.97	-0.01	0.750			
0.7286	46629.96	3.6930	3.6930	0.6665	5.97	-0.01	0.750			
0.7305	46753.74	3.6900	3.6900	0.6111	5.97	-0.01	0.750			
0.7323	46867.05	3.6870	3.6870	0.5534	5.98	-0.00	0.750			
0.7338	46965.16	3.6840	3.6840	0.4974	5.98	-0.00	0.750			
0.7352	47053.12	3.6810	3.6811	0.4442	5.98	-0.00	0.750			
0.7365	47133.36	3.6780	3.6780	0.3965	5.98	-0.00	0.750			
0.7376	47204.40	3.6750	3.6749	0.3518	5.98	0.00	0.750			
0.7385	47267.15	3.6720	3.6721	0.3098	5.98	0.00	0.750			
0.7394	47322.94	3.6690	3.6691	0.2708	5.98	0.00	0.750			
0.7402	47371.70	3.6660	3.6658	0.2328	5.98	0.00	0.750			
0.7408	47411.23	3.6630	3.6629	0.1902	5.98	0.00	0.750			
0.7413	47443.42	3.6600	3.6602	0.1516	5.98	0.00	0.750			
0.7417	47470.37	3.6570	3.6572	0.1142	5.98	0.00	0.750			
0.7420	47488.39	3.6540	3.6547	0.0736	5.98	0.00	0.750			
0.7422	47498.55	3.6510	3.6523	0.0272	5.98	0.00	0.750			
