Ah_balance (normalized)	Ah_balance (mAh)	Voltage - fit (V)	Voltage -  interpolate (V)	dQ/dV (1/V)	Temperature (°C)	Temperature - diff (°C)	Current (C)	R_DC 0ms (mOhm)	R_DC 50ms (mOhm)	R_DC 50 ms PEC (mOhm)
0.0937	5995.39	3.9980	3.9986	-0.1813	5.99	-0.00	-0.750			
0.0942	6028.73	3.9950	3.9952	-0.1860	5.99	-0.00	-0.750			
0.0948	6065.32	3.9920	3.9919	-0.2002	5.99	-0.00	-0.750			
0.0954	6104.22	3.9890	3.9889	-0.2173	5.99	-0.00	-0.750			
0.0960	6145.70	3.9860	3.9859	-0.2330	5.99	-0.00	-0.750			
0.0968	6192.13	3.9830	3.9832	-0.2574	5.98	-0.01	-0.750			
0.0976	6243.51	3.9800	3.9800	-0.2834	5.98	-0.01	-0.750			
0.0984	6299.07	3.9770	3.9771	-0.3202	5.98	-0.01	-0.750			
0.0994	6362.49	3.9740	3.9739	-0.3534	5.98	-0.01	-0.750			
0.1005	6433.62	3.9710	3.9709	-0.3880	5.98	-0.01	-0.750			
0.1018	6513.43	3.9680	3.9680	-0.4203	5.98	-0.01	-0.750			
0.1031	6599.13	3.9650	3.9652	-0.4422	5.97	-0.02	-0.750			
0.1045	6688.50	3.9620	3.9619	-0.4660	5.97	-0.02	-0.750			
0.1059	6779.46	3.9590	3.9592	-0.4865	5.97	-0.02	-0.750			
0.1074	6871.99	3.9560	3.9560	-0.5010	5.97	-0.02	-0.750			
0.1089	6970.63	3.9530	3.9529	-0.5249	5.97	-0.02	-0.750			
0.1105	7072.96	3.9500	3.9501	-0.5467	5.97	-0.02	-0.750			
0.1122	7181.65	3.9470	3.9470	-0.5709	5.98	-0.01	-0.750			
0.1140	7293.55	3.9440	3.9439	-0.5923	5.98	-0.01	-0.750			
0.1158	7409.06	3.9410	3.9411	-0.6111	5.98	-0.01	-0.750			
0.1176	7528.81	3.9380	3.9379	-0.6271	5.98	-0.01	-0.750			
0.1195	7651.11	3.9350	3.9349	-0.6464	5.98	-0.01	-0.750			
0.1215	7776.77	3.9320	3.9320	-0.6644	5.99	-0.00	-0.750			
0.1235	7906.10	3.9290	3.9289	-0.6781	5.99	0.00	-0.750			
0.1256	8038.47	3.9260	3.9260	-0.6886	6.00	0.01	-0.750			
0.1277	8172.43	3.9230	3.9231	-0.6987	6.00	0.01	-0.750			
0.1298	8307.55	3.9200	3.9200	-0.7085	6.01	0.02	-0.750			
0.1320	8444.88	3.9170	3.9169	-0.7157	6.01	0.02	-0.750			
0.1341	8581.26	3.9140	3.9141	-0.7243	6.02	0.03	-0.750			
0.1363	8721.88	3.9110	3.9109	-0.7353	6.02	0.03	-0.750			
0.1385	8865.40	3.9080	3.9080	-0.7465	6.02	0.03	-0.750			
0.1408	9010.35	3.9050	3.9050	-0.7502	6.03	0.04	-0.750			
0.1431	9155.22	3.9020	3.9021	-0.7554	6.03	0.04	-0.750			
0.1453	9300.60	3.8990	3.8990	-0.7588	6.04	0.05	-0.750			
0.1476	9446.12	3.8960	3.8959	-0.7599	6.04	0.05	-0.750			
0.1499	9591.34	3.8930	3.8930	-0.7597	6.05	0.06	-0.750			
0.1522	9737.62	3.8900	3.8901	-0.7631	6.06	0.07	-0.750			
0.1545	9885.13	3.8870	3.8870	-0.7652	6.07	0.08	-0.750			
0.1568	10032.00	3.8840	3.8840	-0.7693	6.07	0.08	-0.750			
0.1590	10176.93	3.8810	3.8810	-0.7755	6.08	0.09	-0.750			
0.1614	10327.13	3.8780	3.8779	-0.7821	6.09	0.10	-0.750			
0.1637	10478.95	3.8750	3.8751	-0.7887	6.10	0.11	-0.750			
0.1661	10631.85	3.8720	3.8720	-0.7936	6.10	0.11	-0.750			
0.1686	10787.33	3.8690	3.8691	-0.7942	6.11	0.12	-0.750			
0.1709	10940.22	3.8660	3.8659	-0.7931	6.12	0.13	-0.750			
0.1733	11089.42	3.8630	3.8631	-0.7928	6.13	0.14	-0.750			
0.1756	11241.42	3.8600	3.8600	-0.7926	6.13	0.14	-0.750			
0.1780	11394.36	3.8570	3.8568	-0.7963	6.14	0.15	-0.750			
0.1804	11547.47	3.8540	3.8542	-0.7934	6.15	0.16	-0.750			
0.1828	11702.03	3.8510	3.8509	-0.7889	6.16	0.17	-0.750			
0.1852	11852.46	3.8480	3.8480	-0.7878	6.16	0.17	-0.750			
0.1875	12000.38	3.8450	3.8451	-0.7851	6.17	0.18	-0.750			
0.1898	12149.60	3.8420	3.8419	-0.7898	6.18	0.19	-0.750			
0.1922	12303.22	3.8390	3.8389	-0.7947	6.19	0.20	-0.750			
0.1946	12455.78	3.8360	3.8361	-0.8017	6.19	0.20	-0.750			
0.1971	12611.96	3.8330	3.8330	-0.8122	6.20	0.21	-0.750			
0.1995	12769.76	3.8300	3.8301	-0.8162	6.21	0.22	-0.750			
0.2020	12926.08	3.8270	3.8269	-0.8132	6.22	0.23	-0.750			
0.2044	13082.89	3.8240	3.8240	-0.8122	6.23	0.24	-0.750			
0.2068	13238.13	3.8210	3.8211	-0.8135	6.23	0.24	-0.750			
0.2093	13393.19	3.8180	3.8180	-0.8226	6.25	0.26	-0.750			
0.2117	13551.14	3.8150	3.8148	-0.8216	6.26	0.27	-0.750			
0.2142	13709.78	3.8120	3.8120	-0.8234	6.27	0.28	-0.750			
0.2167	13870.13	3.8090	3.8090	-0.8247	6.28	0.29	-0.750			
0.2192	14031.16	3.8060	3.8060	-0.8285	6.29	0.30	-0.750			
0.2217	14189.23	3.8030	3.8030	-0.8290	6.30	0.31	-0.750			
0.2242	14345.64	3.8000	3.8000	-0.8194	6.31	0.32	-0.750			
0.2266	14502.03	3.7970	3.7969	-0.8158	6.32	0.33	-0.750			
0.2291	14660.61	3.7940	3.7940	-0.8207	6.32	0.33	-0.750			
0.2315	14817.63	3.7910	3.7910	-0.8230	6.33	0.34	-0.750			
0.2340	14975.29	3.7880	3.7880	-0.8236	6.34	0.35	-0.750			
0.2365	15133.08	3.7850	3.7850	-0.8244	6.35	0.36	-0.750			
0.2389	15291.61	3.7820	3.7820	-0.8254	6.36	0.37	-0.750			
0.2414	15452.65	3.7790	3.7790	-0.8270	6.36	0.37	-0.750			
0.2439	15610.32	3.7760	3.7760	-0.8268	6.37	0.38	-0.750			
0.2464	15769.47	3.7730	3.7730	-0.8225	6.38	0.39	-0.750			
0.2489	15926.58	3.7700	3.7700	-0.8272	6.39	0.40	-0.750			
0.2513	16085.13	3.7670	3.7670	-0.8310	6.40	0.41	-0.750			
0.2538	16245.60	3.7640	3.7639	-0.8351	6.40	0.41	-0.750			
0.2564	16406.42	3.7610	3.7611	-0.8359	6.41	0.42	-0.750			
0.2589	16568.27	3.7580	3.7581	-0.8397	6.42	0.43	-0.750			
0.2614	16728.62	3.7550	3.7550	-0.8395	6.43	0.44	-0.750			
0.2639	16890.34	3.7520	3.7519	-0.8409	6.44	0.45	-0.750			
0.2664	17051.01	3.7490	3.7490	-0.8414	6.44	0.45	-0.750			
0.2689	17212.63	3.7460	3.7460	-0.8395	6.45	0.46	-0.750			
0.2715	17374.98	3.7430	3.7430	-0.8430	6.46	0.47	-0.750			
0.2740	17537.23	3.7400	3.7400	-0.8461	6.46	0.47	-0.750			
0.2765	17699.05	3.7370	3.7370	-0.8471	6.47	0.48	-0.750			
0.2791	17862.07	3.7340	3.7339	-0.8487	6.48	0.49	-0.750			
0.2816	18025.31	3.7310	3.7311	-0.8505	6.48	0.49	-0.750			
0.2842	18188.63	3.7280	3.7279	-0.8538	6.49	0.50	-0.750			
0.2868	18353.35	3.7250	3.7250	-0.8595	6.49	0.50	-0.750			
0.2893	18518.12	3.7220	3.7220	-0.8585	6.50	0.51	-0.750			
0.2919	18683.29	3.7190	3.7190	-0.8683	6.51	0.52	-0.750			
0.2945	18850.80	3.7160	3.7160	-0.8753	6.51	0.52	-0.750			
0.2972	19019.64	3.7130	3.7129	-0.8806	6.52	0.53	-0.750			
0.2998	19188.83	3.7100	3.7100	-0.8875	6.53	0.54	-0.750			
0.3025	19359.49	3.7070	3.7070	-0.8906	6.54	0.55	-0.750			
0.3052	19532.64	3.7040	3.7041	-0.8980	6.55	0.56	-0.750			
0.3079	19704.61	3.7010	3.7010	-0.9076	6.56	0.57	-0.750			
0.3106	19879.24	3.6980	3.6980	-0.9071	6.57	0.58	-0.750			
0.3133	20053.62	3.6950	3.6950	-0.9160	6.57	0.58	-0.750			
0.3161	20230.31	3.6920	3.6920	-0.9229	6.58	0.59	-0.750			
0.3189	20407.64	3.6890	3.6891	-0.9294	6.59	0.60	-0.750			
0.3217	20587.33	3.6860	3.6860	-0.9435	6.60	0.61	-0.750			
0.3245	20769.31	3.6830	3.6830	-0.9517	6.61	0.62	-0.750			
0.3274	20952.82	3.6800	3.6799	-0.9597	6.62	0.63	-0.750			
0.3303	21139.80	3.6770	3.6771	-0.9744	6.63	0.64	-0.750			
0.3332	21325.45	3.6740	3.6740	-0.9857	6.63	0.64	-0.750			
0.3362	21516.96	3.6710	3.6710	-0.9985	6.63	0.64	-0.750			
0.3392	21709.38	3.6680	3.6679	-1.0102	6.64	0.65	-0.750			
0.3422	21903.04	3.6650	3.6650	-1.0180	6.64	0.65	-0.750			
0.3453	22101.95	3.6620	3.6621	-1.0346	6.64	0.65	-0.750			
0.3485	22301.25	3.6590	3.6590	-1.0464	6.65	0.66	-0.750			
0.3516	22503.37	3.6560	3.6559	-1.0525	6.66	0.67	-0.750			
0.3548	22706.02	3.6530	3.6529	-1.0588	6.67	0.68	-0.750			
0.3580	22909.64	3.6500	3.6500	-1.0832	6.67	0.68	-0.750			
0.3612	23119.23	3.6470	3.6470	-1.0980	6.68	0.69	-0.750			
0.3646	23332.25	3.6440	3.6439	-1.1110	6.68	0.69	-0.750			
0.3679	23546.56	3.6410	3.6412	-1.1231	6.69	0.70	-0.750			
0.3713	23765.93	3.6380	3.6380	-1.1399	6.69	0.70	-0.750			
0.3748	23986.56	3.6350	3.6349	-1.1553	6.70	0.71	-0.750			
0.3782	24207.98	3.6320	3.6320	-1.1658	6.71	0.72	-0.750			
0.3817	24429.54	3.6290	3.6291	-1.1825	6.71	0.72	-0.750			
0.3853	24661.91	3.6260	3.6259	-1.2048	6.72	0.73	-0.750			
0.3890	24896.28	3.6230	3.6230	-1.2164	6.74	0.75	-0.750			
0.3926	25129.46	3.6200	3.6200	-1.2327	6.75	0.76	-0.750			
0.3964	25371.59	3.6170	3.6170	-1.2544	6.75	0.76	-0.750			
0.4002	25611.76	3.6140	3.6140	-1.2619	6.75	0.76	-0.750			
0.4039	25851.99	3.6110	3.6109	-1.2842	6.75	0.76	-0.750			
0.4078	26100.55	3.6080	3.6081	-1.3027	6.76	0.77	-0.750			
0.4118	26355.33	3.6050	3.6049	-1.3293	6.77	0.78	-0.750			
0.4158	26612.51	3.6020	3.6019	-1.3472	6.78	0.79	-0.750	0.483	1.119	
0.4199	26873.69	3.5990	3.5990	-1.3573	6.79	0.80	-0.750			
0.4240	27137.38	3.5960	3.5960	-1.3729	6.80	0.81	-0.750			
0.4281	27401.27	3.5930	3.5929	-1.3898	6.81	0.82	-0.750			
0.4323	27667.25	3.5900	3.5901	-1.3984	6.81	0.82	-0.750			
0.4365	27939.11	3.5870	3.5869	-1.4190	6.82	0.83	-0.750			
0.4408	28209.23	3.5840	3.5840	-1.4460	6.83	0.84	-0.750			
0.4451	28488.43	3.5810	3.5810	-1.4674	6.83	0.84	-0.750			
0.4496	28774.53	3.5780	3.5779	-1.5003	6.84	0.85	-0.750			
0.4542	29067.84	3.5750	3.5751	-1.5208	6.85	0.86	-0.750			
0.4588	29363.46	3.5720	3.5718	-1.5333	6.85	0.86	-0.750			
0.4635	29662.61	3.5690	3.5689	-1.5467	6.86	0.87	-0.750			
0.4681	29960.16	3.5660	3.5662	-1.5526	6.86	0.87	-0.750			
0.4728	30256.16	3.5630	3.5628	-1.5810	6.86	0.87	-0.750			
0.4775	30559.20	3.5600	3.5600	-1.5909	6.87	0.88	-0.750			
0.4823	30866.81	3.5570	3.5569	-1.6199	6.87	0.88	-0.750			
0.4872	31182.51	3.5540	3.5542	-1.6553	6.88	0.89	-0.750			
0.4922	31501.61	3.5510	3.5509	-1.6716	6.89	0.90	-0.750			
0.4972	31822.83	3.5480	3.5480	-1.6942	6.90	0.91	-0.750			
0.5024	32152.26	3.5450	3.5448	-1.7082	6.90	0.91	-0.750			
0.5075	32482.18	3.5420	3.5420	-1.7255	6.91	0.92	-0.750			
0.5127	32815.17	3.5390	3.5391	-1.7346	6.92	0.93	-0.750			
0.5180	33151.35	3.5360	3.5361	-1.7407	6.92	0.93	-0.750			
0.5232	33484.56	3.5330	3.5330	-1.7419	6.92	0.93	-0.750			
0.5285	33823.59	3.5300	3.5300	-1.7424	6.93	0.94	-0.750			
0.5336	34153.08	3.5270	3.5269	-1.7476	6.93	0.94	-0.750			
0.5389	34492.16	3.5240	3.5241	-1.7610	6.94	0.95	-0.750			
0.5442	34828.42	3.5210	3.5210	-1.7598	6.95	0.96	-0.750			
0.5495	35168.98	3.5180	3.5179	-1.7660	6.95	0.96	-0.750			
0.5548	35505.26	3.5150	3.5150	-1.7744	6.95	0.96	-0.750			
0.5602	35850.74	3.5120	3.5120	-1.7774	6.96	0.97	-0.750			
0.5655	36194.56	3.5090	3.5091	-1.7943	6.97	0.98	-0.750			
0.5709	36535.71	3.5060	3.5060	-1.7881	6.97	0.98	-0.750			
0.5764	36886.77	3.5030	3.5029	-1.7784	6.98	0.99	-0.750			
0.5817	37227.07	3.5000	3.5000	-1.7679	6.98	0.99	-0.750			
0.5870	37566.74	3.4970	3.4970	-1.7548	6.99	1.00	-0.750			
0.5922	37898.66	3.4940	3.4939	-1.7350	7.01	1.02	-0.750			
0.5974	38231.63	3.4910	3.4909	-1.7271	7.02	1.03	-0.750			
0.6025	38559.46	3.4880	3.4879	-1.7070	7.02	1.03	-0.750			
0.6076	38889.24	3.4850	3.4850	-1.6871	7.03	1.04	-0.750			
0.6127	39214.76	3.4820	3.4819	-1.6828	7.05	1.06	-0.750			
0.6177	39535.32	3.4790	3.4790	-1.6600	7.06	1.07	-0.750			
0.6227	39852.58	3.4760	3.4758	-1.6342	7.07	1.08	-0.750			
0.6275	40163.05	3.4730	3.4732	-1.6247	7.07	1.08	-0.750			
0.6324	40476.21	3.4700	3.4700	-1.6048	7.08	1.09	-0.750			
0.6373	40784.68	3.4670	3.4670	-1.5783	7.10	1.11	-0.750			
0.6420	41087.84	3.4640	3.4641	-1.5579	7.11	1.12	-0.750			
0.6466	41381.12	3.4610	3.4610	-1.5321	7.12	1.13	-0.750			
0.6512	41676.69	3.4580	3.4579	-1.5162	7.14	1.15	-0.750			
0.6557	41961.91	3.4550	3.4550	-1.4926	7.15	1.16	-0.750			
0.6601	42247.04	3.4520	3.4520	-1.4666	7.16	1.17	-0.750			
0.6646	42533.24	3.4490	3.4489	-1.4401	7.16	1.17	-0.750			
0.6688	42805.79	3.4460	3.4461	-1.4131	7.17	1.18	-0.750			
0.6730	43071.77	3.4430	3.4429	-1.3749	7.18	1.19	-0.750			
0.6771	43331.71	3.4400	3.4400	-1.3411	7.20	1.21	-0.750			
0.6810	43586.33	3.4370	3.4373	-1.3133	7.21	1.22	-0.750			
0.6850	43837.04	3.4340	3.4339	-1.2865	7.22	1.23	-0.750			
0.6888	44081.30	3.4310	3.4310	-1.2610	7.24	1.25	-0.750			
0.6925	44321.03	3.4280	3.4280	-1.2318	7.25	1.26	-0.750			
0.6962	44554.74	3.4250	3.4249	-1.2061	7.26	1.27	-0.750			
0.6998	44784.62	3.4220	3.4220	-1.1716	7.28	1.29	-0.750			
0.7033	45009.31	3.4190	3.4189	-1.1235	7.29	1.30	-0.750			
0.7066	45219.81	3.4160	3.4161	-1.0756	7.30	1.31	-0.750			
0.7097	45421.52	3.4130	3.4131	-1.0424	7.32	1.33	-0.750			
0.7127	45613.08	3.4100	3.4100	-1.0104	7.33	1.34	-0.750			
0.7156	45800.17	3.4070	3.4068	-0.9871	7.34	1.35	-0.750			
0.7186	45988.12	3.4040	3.4042	-0.9690	7.35	1.36	-0.750			
0.7215	46174.29	3.4010	3.4010	-0.9543	7.36	1.37	-0.750			
0.7244	46362.53	3.3980	3.3980	-0.9433	7.37	1.38	-0.750			
0.7272	46540.39	3.3950	3.3950	-0.9108	7.38	1.39	-0.750			
0.7299	46711.31	3.3920	3.3920	-0.8839	7.39	1.40	-0.750			
0.7325	46878.34	3.3890	3.3890	-0.8549	7.40	1.41	-0.750			
0.7350	47037.17	3.3860	3.3859	-0.8271	7.40	1.41	-0.750			
0.7374	47193.50	3.3830	3.3830	-0.8068	7.41	1.42	-0.750			
0.7398	47345.62	3.3800	3.3800	-0.7958	7.42	1.43	-0.750			
0.7421	47495.99	3.3770	3.3770	-0.7654	7.43	1.44	-0.750			
