Ah_balance (normalized)	Ah_balance (mAh)	Voltage - fit (V)	Voltage -  interpolate (V)	dQ/dV (1/V)	Temperature (°C)	Temperature - diff (°C)	Current (C)	R_DC 0ms (mOhm)	R_DC 50ms (mOhm)	R_DC 50 ms PEC (mOhm)
0.0932	5967.04	4.0070	4.0062	-0.0407	6.00	0.01	-0.750			
0.0934	5980.15	4.0040	4.0037	-0.0834	6.00	0.01	-0.750			
0.0937	5999.11	4.0010	4.0006	-0.1119	6.00	0.01	-0.750			
0.0941	6023.25	3.9980	3.9980	-0.1395	6.00	0.01	-0.750			
0.0946	6052.77	3.9950	3.9952	-0.1668	6.00	0.01	-0.750			
0.0951	6087.75	3.9920	3.9919	-0.1918	6.00	0.01	-0.750			
0.0958	6128.47	3.9890	3.9890	-0.2174	5.99	0.00	-0.750			
0.0964	6172.49	3.9860	3.9860	-0.2396	5.99	0.00	-0.750			
0.0972	6221.06	3.9830	3.9830	-0.2605	5.99	0.00	-0.750			
0.0980	6273.36	3.9800	3.9801	-0.2836	5.99	-0.00	-0.750			
0.0989	6329.20	3.9770	3.9770	-0.3059	5.99	-0.00	-0.750			
0.0998	6389.77	3.9740	3.9740	-0.3283	5.98	-0.01	-0.750			
0.1009	6455.32	3.9710	3.9709	-0.3511	5.98	-0.01	-0.750			
0.1020	6525.06	3.9680	3.9680	-0.3744	5.98	-0.01	-0.750			
0.1031	6599.77	3.9650	3.9650	-0.3967	5.98	-0.01	-0.750			
0.1043	6677.95	3.9620	3.9621	-0.4194	5.97	-0.02	-0.750			
0.1056	6760.64	3.9590	3.9589	-0.4398	5.97	-0.02	-0.750			
0.1070	6847.57	3.9560	3.9560	-0.4596	5.97	-0.02	-0.750			
0.1084	6937.94	3.9530	3.9530	-0.4773	5.96	-0.03	-0.750			
0.1099	7031.20	3.9500	3.9501	-0.4960	5.96	-0.03	-0.750			
0.1114	7128.56	3.9470	3.9470	-0.5130	5.96	-0.03	-0.750			
0.1129	7228.63	3.9440	3.9438	-0.5303	5.96	-0.03	-0.750			
0.1146	7331.95	3.9410	3.9411	-0.5446	5.96	-0.03	-0.750			
0.1162	7438.20	3.9380	3.9380	-0.5627	5.96	-0.03	-0.750			
0.1180	7549.51	3.9350	3.9350	-0.5768	5.95	-0.04	-0.750			
0.1197	7661.70	3.9320	3.9320	-0.5890	5.95	-0.04	-0.750			
0.1215	7775.13	3.9290	3.9289	-0.6001	5.95	-0.04	-0.750			
0.1233	7891.95	3.9260	3.9261	-0.6114	5.95	-0.04	-0.750			
0.1252	8010.67	3.9230	3.9229	-0.6195	5.95	-0.04	-0.750			
0.1270	8130.50	3.9200	3.9200	-0.6293	5.96	-0.03	-0.750			
0.1289	8252.06	3.9170	3.9170	-0.6400	5.96	-0.03	-0.750			
0.1309	8377.25	3.9140	3.9139	-0.6485	5.96	-0.03	-0.750			
0.1329	8502.48	3.9110	3.9109	-0.6536	5.97	-0.02	-0.750			
0.1348	8628.50	3.9080	3.9082	-0.6604	5.97	-0.02	-0.750			
0.1368	8757.00	3.9050	3.9049	-0.6667	5.97	-0.02	-0.750			
0.1388	8885.33	3.9020	3.9019	-0.6714	5.98	-0.01	-0.750			
0.1408	9013.91	3.8990	3.8990	-0.6738	5.98	-0.01	-0.750			
0.1429	9143.82	3.8960	3.8961	-0.6765	5.98	-0.01	-0.750			
0.1449	9275.74	3.8930	3.8929	-0.6833	5.99	-0.00	-0.750			
0.1470	9406.66	3.8900	3.8901	-0.6857	5.99	-0.00	-0.750			
0.1490	9538.11	3.8870	3.8869	-0.6871	5.99	0.00	-0.750			
0.1511	9670.47	3.8840	3.8839	-0.6903	6.00	0.01	-0.750			
0.1532	9802.77	3.8810	3.8811	-0.6938	6.01	0.02	-0.750			
0.1553	9936.33	3.8780	3.8781	-0.6992	6.01	0.02	-0.750			
0.1574	10072.48	3.8750	3.8749	-0.7036	6.02	0.03	-0.750			
0.1595	10207.62	3.8720	3.8720	-0.7048	6.03	0.04	-0.750			
0.1616	10343.04	3.8690	3.8690	-0.7064	6.03	0.04	-0.750			
0.1637	10479.14	3.8660	3.8660	-0.7088	6.04	0.05	-0.750			
0.1659	10615.47	3.8630	3.8630	-0.7098	6.05	0.06	-0.750			
0.1680	10752.05	3.8600	3.8600	-0.7075	6.06	0.07	-0.750			
0.1701	10887.99	3.8570	3.8570	-0.7081	6.06	0.07	-0.750			
0.1722	11024.00	3.8540	3.8540	-0.7094	6.07	0.08	-0.750			
0.1744	11159.61	3.8510	3.8510	-0.7093	6.08	0.09	-0.750			
0.1765	11295.39	3.8480	3.8480	-0.7113	6.08	0.09	-0.750			
0.1786	11431.75	3.8450	3.8450	-0.7139	6.09	0.10	-0.750			
0.1808	11569.63	3.8420	3.8420	-0.7167	6.10	0.11	-0.750			
0.1830	11708.88	3.8390	3.8389	-0.7193	6.10	0.11	-0.750			
0.1851	11846.77	3.8360	3.8361	-0.7169	6.11	0.12	-0.750			
0.1873	11984.15	3.8330	3.8330	-0.7181	6.12	0.13	-0.750			
0.1894	12121.99	3.8300	3.8300	-0.7192	6.12	0.13	-0.750			
0.1916	12259.24	3.8270	3.8270	-0.7215	6.13	0.14	-0.750			
0.1937	12399.17	3.8240	3.8240	-0.7222	6.14	0.15	-0.750			
0.1959	12538.40	3.8210	3.8210	-0.7208	6.14	0.15	-0.750			
0.1981	12676.03	3.8180	3.8181	-0.7223	6.15	0.16	-0.750			
0.2002	12815.26	3.8150	3.8150	-0.7215	6.16	0.17	-0.750			
0.2024	12952.18	3.8120	3.8120	-0.7262	6.17	0.18	-0.750			
0.2046	13091.57	3.8090	3.8089	-0.7265	6.17	0.18	-0.750			
0.2068	13232.62	3.8060	3.8060	-0.7289	6.18	0.19	-0.750			
0.2090	13373.13	3.8030	3.8030	-0.7311	6.19	0.20	-0.750			
0.2112	13514.60	3.8000	3.8000	-0.7303	6.19	0.20	-0.750			
0.2133	13654.05	3.7970	3.7970	-0.7285	6.20	0.21	-0.750			
0.2155	13792.52	3.7940	3.7940	-0.7310	6.21	0.22	-0.750			
0.2177	13931.37	3.7910	3.7911	-0.7310	6.21	0.22	-0.750			
0.2199	14073.70	3.7880	3.7880	-0.7353	6.22	0.23	-0.750			
0.2221	14215.20	3.7850	3.7850	-0.7401	6.23	0.24	-0.750			
0.2244	14359.46	3.7820	3.7820	-0.7352	6.24	0.25	-0.750			
0.2266	14503.17	3.7790	3.7789	-0.7311	6.24	0.25	-0.750			
0.2288	14641.24	3.7760	3.7760	-0.7257	6.25	0.26	-0.750			
0.2309	14779.11	3.7730	3.7733	-0.7182	6.26	0.27	-0.750			
0.2330	14914.13	3.7700	3.7697	-0.7226	6.26	0.27	-0.750			
0.2352	15051.89	3.7670	3.7669	-0.7296	6.27	0.28	-0.750			
0.2373	15189.85	3.7640	3.7641	-0.7381	6.28	0.29	-0.750			
0.2396	15333.47	3.7610	3.7610	-0.7609	6.28	0.29	-0.750			
0.2422	15499.29	3.7580	3.7577	-0.7364	6.29	0.30	-0.750			
0.2445	15646.73	3.7550	3.7548	-0.6680	6.30	0.31	-0.750			
0.2465	15778.39	3.7520	3.7522	-0.6201	6.31	0.32	-0.750			
0.2482	15886.90	3.7490	3.7500	-0.5653	6.31	0.32	-0.750			
0.2495	15966.85	3.7460	3.7467	-0.5607	6.32	0.33	-0.750			
0.2509	16059.24	3.7430	3.7418	-0.5822	6.32	0.33	-0.750			
0.2525	16159.20	3.7400	3.7398	-0.6247	6.33	0.34	-0.750			
0.2546	16291.37	3.7370	3.7373	-0.7065	6.33	0.34	-0.750			
0.2571	16451.47	3.7340	3.7341	-0.7730	6.34	0.35	-0.750			
0.2596	16615.84	3.7310	3.7310	-0.8123	6.35	0.36	-0.750			
0.2621	16772.47	3.7280	3.7279	-0.8144	6.35	0.36	-0.750			
0.2645	16930.07	3.7250	3.7251	-0.8294	6.36	0.37	-0.750			
0.2671	17094.24	3.7220	3.7218	-0.8266	6.36	0.37	-0.750			
0.2696	17252.32	3.7190	3.7188	-0.8195	6.37	0.38	-0.750			
0.2720	17409.47	3.7160	3.7164	-0.8235	6.37	0.38	-0.750			
0.2745	17565.07	3.7130	3.7130	-0.8238	6.37	0.38	-0.750			
0.2769	17721.17	3.7100	3.7098	-0.8317	6.38	0.39	-0.750			
0.2794	17880.85	3.7070	3.7068	-0.8387	6.38	0.39	-0.750			
0.2819	18041.49	3.7040	3.7041	-0.8728	6.38	0.39	-0.750			
0.2846	18213.67	3.7010	3.7012	-0.8835	6.39	0.40	-0.750			
0.2873	18388.31	3.6980	3.6977	-0.8875	6.40	0.41	-0.750			
0.2900	18559.24	3.6950	3.6951	-0.8850	6.41	0.42	-0.750			
0.2926	18727.91	3.6920	3.6923	-0.8709	6.41	0.42	-0.750			
0.2952	18894.83	3.6890	3.6891	-0.8647	6.42	0.43	-0.750			
0.2978	19058.69	3.6860	3.6866	-0.8726	6.43	0.44	-0.750			
0.3003	19218.75	3.6830	3.6830	-0.8872	6.43	0.44	-0.750			
0.3030	19393.90	3.6800	3.6798	-0.9089	6.44	0.45	-0.750			
0.3058	19571.88	3.6770	3.6770	-0.9208	6.44	0.45	-0.750			
0.3086	19752.32	3.6740	3.6739	-0.9276	6.45	0.46	-0.750			
0.3114	19932.01	3.6710	3.6710	-0.9443	6.45	0.46	-0.750			
0.3143	20115.04	3.6680	3.6679	-0.9514	6.46	0.47	-0.750			
0.3171	20296.71	3.6650	3.6650	-0.9491	6.47	0.48	-0.750			
0.3200	20478.56	3.6620	3.6619	-0.9431	6.48	0.49	-0.750			
0.3229	20663.06	3.6590	3.6593	-0.9577	6.49	0.50	-0.750			
0.3257	20847.35	3.6560	3.6559	-0.9747	6.49	0.50	-0.750			
0.3287	21036.88	3.6530	3.6528	-0.9791	6.50	0.51	-0.750			
0.3316	21221.89	3.6500	3.6499	-0.9794	6.50	0.51	-0.750			
0.3345	21410.52	3.6470	3.6473	-0.9901	6.51	0.52	-0.750			
0.3376	21606.39	3.6440	3.6440	-1.0161	6.51	0.52	-0.750			
0.3407	21805.55	3.6410	3.6407	-1.0200	6.52	0.53	-0.750			
0.3437	21999.70	3.6380	3.6379	-1.0139	6.52	0.53	-0.750			
0.3468	22197.33	3.6350	3.6349	-1.0188	6.53	0.54	-0.750			
0.3498	22389.88	3.6320	3.6319	-1.0253	6.54	0.55	-0.750			
0.3529	22586.92	3.6290	3.6290	-1.0584	6.55	0.56	-0.750			
0.3562	22794.72	3.6260	3.6256	-1.0671	6.56	0.57	-0.750			
0.3595	23009.73	3.6230	3.6226	-1.0817	6.57	0.58	-0.750			
0.3628	23216.96	3.6200	3.6207	-1.0696	6.57	0.58	-0.750			
0.3660	23425.97	3.6170	3.6163	-1.0657	6.58	0.59	-0.750			
0.3691	23625.01	3.6140	3.6137	-1.0553	6.58	0.59	-0.750			
0.3720	23810.41	3.6110	3.6109	-1.0443	6.59	0.60	-0.750			
0.3752	24011.38	3.6080	3.6079	-1.0732	6.59	0.60	-0.750			
0.3785	24226.57	3.6050	3.6050	-1.1124	6.60	0.61	-0.750			
0.3820	24449.24	3.6020	3.6017	-1.1330	6.61	0.62	-0.750			
0.3855	24670.01	3.5990	3.5996	-1.1444	6.61	0.62	-0.750			
0.3889	24892.60	3.5960	3.5959	-1.1527	6.62	0.63	-0.750			
0.3924	25114.64	3.5930	3.5929	-1.1512	6.62	0.63	-0.750			
0.3958	25330.20	3.5900	3.5900	-1.1473	6.63	0.64	-0.750			
0.3994	25560.61	3.5870	3.5867	-1.1956	6.63	0.64	-0.750			
0.4030	25794.90	3.5840	3.5838	-1.1921	6.64	0.65	-0.750			
0.4066	26023.68	3.5810	3.5808	-1.1951	6.64	0.65	-0.750	0.507	1.076	
0.4102	26253.24	3.5780	3.5787	-1.2142	6.65	0.66	-0.750			
0.4140	26495.09	3.5750	3.5747	-1.2271	6.66	0.67	-0.750			
0.4176	26726.54	3.5720	3.5717	-1.2174	6.66	0.67	-0.750			
0.4213	26960.50	3.5690	3.5688	-1.2299	6.67	0.68	-0.750			
0.4250	27202.94	3.5660	3.5658	-1.2706	6.68	0.69	-0.750			
0.4289	27451.52	3.5630	3.5628	-1.2654	6.69	0.70	-0.750			
0.4326	27683.86	3.5600	3.5599	-1.2997	6.69	0.70	-0.750			
0.4367	27946.99	3.5570	3.5566	-1.3114	6.70	0.71	-0.750			
0.4406	28196.84	3.5540	3.5535	-1.3039	6.70	0.71	-0.750			
0.4443	28436.35	3.5510	3.5507	-1.3285	6.71	0.72	-0.750			
0.4484	28694.73	3.5480	3.5480	-1.3202	6.71	0.72	-0.750			
0.4525	28957.76	3.5450	3.5448	-1.3398	6.72	0.73	-0.750			
0.4565	29215.04	3.5420	3.5419	-1.3671	6.72	0.73	-0.750			
0.4606	29475.80	3.5390	3.5396	-1.3697	6.73	0.74	-0.750			
0.4649	29751.07	3.5360	3.5356	-1.3786	6.74	0.75	-0.750			
0.4688	30003.33	3.5330	3.5329	-1.3974	6.75	0.76	-0.750			
0.4731	30275.32	3.5300	3.5304	-1.3784	6.76	0.77	-0.750			
0.4773	30549.89	3.5270	3.5268	-1.4259	6.77	0.78	-0.750			
0.4816	30820.14	3.5240	3.5241	-1.4421	6.78	0.79	-0.750			
0.4859	31100.46	3.5210	3.5211	-1.4289	6.79	0.80	-0.750			
0.4903	31381.60	3.5180	3.5178	-1.4316	6.80	0.81	-0.750			
0.4946	31652.08	3.5150	3.5148	-1.4364	6.81	0.82	-0.750			
0.4988	31920.43	3.5120	3.5121	-1.4200	6.81	0.82	-0.750			
0.5032	32204.02	3.5090	3.5087	-1.4442	6.82	0.83	-0.750			
0.5074	32471.32	3.5060	3.5059	-1.4498	6.83	0.84	-0.750			
0.5118	32752.48	3.5030	3.5031	-1.4707	6.84	0.85	-0.750			
0.5163	33045.43	3.5000	3.4998	-1.5250	6.85	0.86	-0.750			
0.5211	33349.81	3.4970	3.4970	-1.5179	6.87	0.88	-0.750			
0.5256	33637.22	3.4940	3.4939	-1.5145	6.88	0.89	-0.750			
0.5302	33931.04	3.4910	3.4908	-1.5136	6.89	0.90	-0.750			
0.5347	34219.78	3.4880	3.4880	-1.4854	6.90	0.91	-0.750			
0.5391	34500.10	3.4850	3.4846	-1.4866	6.91	0.92	-0.750			
0.5435	34781.45	3.4820	3.4821	-1.4786	6.92	0.93	-0.750			
0.5480	35072.41	3.4790	3.4790	-1.4698	6.93	0.94	-0.750			
0.5525	35359.92	3.4760	3.4766	-1.5004	6.95	0.96	-0.750			
0.5569	35641.37	3.4730	3.4728	-1.4715	6.96	0.97	-0.750			
0.5615	35935.49	3.4700	3.4699	-1.4811	6.97	0.98	-0.750			
0.5659	36217.32	3.4670	3.4668	-1.4831	6.98	0.99	-0.750			
0.5704	36508.42	3.4640	3.4638	-1.4871	6.99	1.00	-0.750			
0.5748	36784.60	3.4610	3.4606	-1.4746	7.00	1.01	-0.750			
0.5793	37073.49	3.4580	3.4583	-1.4634	7.01	1.02	-0.750			
0.5835	37344.23	3.4550	3.4548	-1.4350	7.02	1.03	-0.750			
0.5878	37620.13	3.4520	3.4519	-1.4374	7.04	1.05	-0.750			
0.5923	37905.67	3.4490	3.4489	-1.4232	7.06	1.07	-0.750			
0.5964	38172.05	3.4460	3.4461	-1.4149	7.08	1.09	-0.750			
0.6008	38449.42	3.4430	3.4427	-1.4098	7.09	1.10	-0.750			
0.6049	38715.73	3.4400	3.4397	-1.3809	7.11	1.12	-0.750			
0.6092	38985.80	3.4370	3.4370	-1.3812	7.13	1.14	-0.750			
0.6132	39246.88	3.4340	3.4340	-1.3585	7.14	1.15	-0.750			
0.6173	39507.00	3.4310	3.4308	-1.3379	7.15	1.16	-0.750			
0.6213	39763.76	3.4280	3.4280	-1.3356	7.17	1.18	-0.750			
0.6252	40014.66	3.4250	3.4250	-1.3009	7.18	1.19	-0.750			
0.6293	40277.43	3.4220	3.4218	-1.3019	7.20	1.21	-0.750			
0.6333	40530.25	3.4190	3.4188	-1.2608	7.22	1.23	-0.750			
0.6371	40771.51	3.4160	3.4157	-1.2233	7.24	1.25	-0.750			
0.6407	41002.73	3.4130	3.4125	-1.1860	7.26	1.27	-0.750			
0.6441	41222.79	3.4100	3.4097	-1.1428	7.27	1.28	-0.750			
0.6473	41424.56	3.4070	3.4075	-1.1106	7.29	1.30	-0.750			
0.6506	41635.64	3.4040	3.4040	-1.1021	7.30	1.31	-0.750			
0.6540	41855.56	3.4010	3.4008	-1.1094	7.31	1.32	-0.750			
0.6573	42065.55	3.3980	3.3979	-1.0818	7.32	1.33	-0.750			
0.6606	42279.51	3.3950	3.3952	-1.0598	7.33	1.34	-0.750			
0.6637	42477.11	3.3920	3.3920	-1.0304	7.35	1.36	-0.750			
0.6667	42670.77	3.3890	3.3890	-0.9949	7.37	1.38	-0.750			
0.6696	42856.30	3.3860	3.3859	-0.9640	7.39	1.40	-0.750			
0.6725	43038.99	3.3830	3.3836	-0.9433	7.41	1.42	-0.750			
0.6752	43214.55	3.3800	3.3800	-0.9390	7.42	1.43	-0.750			
0.6781	43396.11	3.3770	3.3769	-0.9036	7.44	1.45	-0.750			
0.6808	43568.31	3.3740	3.3739	-0.8727	7.45	1.46	-0.750			
0.6833	43733.88	3.3710	3.3708	-0.8506	7.46	1.47	-0.750			
0.6858	43894.01	3.3680	3.3678	-0.8205	7.47	1.48	-0.750			
0.6882	44046.49	3.3650	3.3648	-0.7943	7.49	1.50	-0.750			
0.6905	44195.14	3.3620	3.3619	-0.7767	7.50	1.51	-0.750			
0.6929	44343.09	3.3590	3.3590	-0.7651	7.51	1.52	-0.750			
0.6951	44488.05	3.3560	3.3560	-0.7455	7.53	1.54	-0.750			
0.6973	44629.16	3.3530	3.3533	-0.7276	7.54	1.55	-0.750			
0.6995	44765.97	3.3500	3.3498	-0.7085	7.55	1.56	-0.750			
0.7016	44900.22	3.3470	3.3470	-0.6857	7.56	1.57	-0.750			
0.7036	45028.57	3.3440	3.3441	-0.6741	7.57	1.58	-0.750			
0.7056	45159.61	3.3410	3.3409	-0.6620	7.59	1.60	-0.750			
0.7076	45284.32	3.3380	3.3378	-0.6422	7.60	1.61	-0.750			
0.7094	45404.14	3.3350	3.3350	-0.6229	7.61	1.62	-0.750			
0.7113	45521.75	3.3320	3.3320	-0.6047	7.62	1.63	-0.750			
0.7131	45636.83	3.3290	3.3288	-0.5879	7.63	1.64	-0.750			
0.7148	45748.33	3.3260	3.3261	-0.5681	7.64	1.65	-0.750			
0.7165	45858.08	3.3230	3.3229	-0.6068	7.65	1.66	-0.750			
