Ah_balance (normalized)	Ah_balance (mAh)	Voltage - fit (V)	Voltage -  interpolate (V)	dQ/dV (1/V)	Temperature (°C)	Temperature - diff (°C)	Current (C)	R_DC 0ms (mOhm)	R_DC 50ms (mOhm)	R_DC 50 ms PEC (mOhm)
0.1829	11708.04	4.0800	4.0800	0.7390	7.71	1.72	0.750			
0.1852	11852.08	4.0770	4.0770	0.7561	7.70	1.71	0.750			
0.1875	11999.65	4.0740	4.0739	0.7665	7.70	1.71	0.750			
0.1898	12146.87	4.0710	4.0711	0.7741	7.69	1.70	0.750			
0.1922	12297.66	4.0680	4.0680	0.7766	7.68	1.69	0.750			
0.1945	12447.25	4.0650	4.0651	0.7793	7.67	1.68	0.750			
0.1968	12596.73	4.0620	4.0621	0.7842	7.67	1.68	0.750			
0.1992	12747.49	4.0590	4.0590	0.7826	7.67	1.68	0.750			
0.2015	12897.73	4.0560	4.0560	0.7839	7.67	1.68	0.750			
0.2039	13047.24	4.0530	4.0531	0.7894	7.67	1.68	0.750			
0.2062	13198.88	4.0500	4.0501	0.7925	7.67	1.68	0.750			
0.2086	13352.77	4.0470	4.0471	0.7981	7.67	1.68	0.750			
0.2110	13506.05	4.0440	4.0440	0.8002	7.67	1.68	0.750			
0.2135	13662.35	4.0410	4.0411	0.7891	7.66	1.67	0.750			
0.2158	13814.14	4.0380	4.0380	0.8023	7.66	1.67	0.750			
0.2182	13964.93	4.0350	4.0351	0.8013	7.65	1.66	0.750			
0.2206	14118.88	4.0320	4.0317	0.8084	7.65	1.66	0.750			
0.2230	14274.46	4.0290	4.0291	0.8166	7.65	1.66	0.750			
0.2255	14433.30	4.0260	4.0260	0.8219	7.65	1.66	0.750			
0.2280	14594.97	4.0230	4.0230	0.8295	7.65	1.66	0.750			
0.2305	14753.67	4.0200	4.0200	0.8235	7.65	1.66	0.750			
0.2330	14911.45	4.0170	4.0170	0.8269	7.65	1.66	0.750			
0.2355	15070.36	4.0140	4.0140	0.8266	7.65	1.66	0.750			
0.2380	15229.27	4.0110	4.0109	0.8286	7.64	1.65	0.750			
0.2404	15387.43	4.0080	4.0080	0.8335	7.64	1.65	0.750			
0.2429	15548.53	4.0050	4.0051	0.8386	7.63	1.64	0.750			
0.2455	15709.95	4.0020	4.0018	0.8404	7.63	1.64	0.750			
0.2480	15871.97	3.9990	3.9991	0.8424	7.63	1.64	0.750			
0.2505	16034.06	3.9960	3.9961	0.8438	7.62	1.63	0.750			
0.2531	16196.49	3.9930	3.9930	0.8488	7.62	1.63	0.750			
0.2556	16356.77	3.9900	3.9900	0.8476	7.61	1.62	0.750			
0.2582	16521.78	3.9870	3.9869	0.8539	7.61	1.62	0.750			
0.2607	16686.52	3.9840	3.9839	0.8603	7.61	1.62	0.750			
0.2633	16852.51	3.9810	3.9811	0.8593	7.60	1.61	0.750			
0.2659	17017.67	3.9780	3.9780	0.8651	7.60	1.61	0.750			
0.2685	17182.32	3.9750	3.9750	0.8721	7.59	1.60	0.750			
0.2711	17351.44	3.9720	3.9717	0.8762	7.59	1.60	0.750			
0.2738	17520.48	3.9690	3.9690	0.8739	7.59	1.60	0.750			
0.2764	17689.33	3.9660	3.9662	0.8796	7.58	1.59	0.750			
0.2790	17858.67	3.9630	3.9631	0.8875	7.58	1.59	0.750			
0.2817	18028.29	3.9600	3.9600	0.8872	7.57	1.58	0.750			
0.2843	18196.74	3.9570	3.9571	0.8963	7.57	1.58	0.750			
0.2871	18372.22	3.9540	3.9540	0.8943	7.56	1.57	0.750			
0.2898	18547.02	3.9510	3.9510	0.9103	7.55	1.56	0.750			
0.2925	18721.64	3.9480	3.9481	0.9154	7.54	1.55	0.750			
0.2953	18896.47	3.9450	3.9449	0.9170	7.53	1.54	0.750			
0.2980	19074.39	3.9420	3.9420	0.9197	7.53	1.54	0.750			
0.3008	19250.77	3.9390	3.9390	0.9271	7.53	1.54	0.750			
0.3036	19428.53	3.9360	3.9361	0.9340	7.53	1.54	0.750			
0.3064	19611.32	3.9330	3.9331	0.9487	7.53	1.54	0.750			
0.3092	19789.92	3.9300	3.9299	0.9513	7.53	1.54	0.750			
0.3121	19975.71	3.9270	3.9270	0.9487	7.52	1.53	0.750			
0.3150	20158.04	3.9240	3.9241	0.9531	7.51	1.52	0.750			
0.3178	20340.96	3.9210	3.9211	0.9578	7.50	1.51	0.750			
0.3207	20524.11	3.9180	3.9179	0.9680	7.49	1.50	0.750			
0.3236	20709.66	3.9150	3.9149	0.9707	7.49	1.50	0.750			
0.3265	20896.12	3.9120	3.9120	0.9845	7.48	1.49	0.750			
0.3295	21086.79	3.9090	3.9091	0.9995	7.48	1.49	0.750			
0.3325	21283.07	3.9060	3.9059	1.0112	7.47	1.48	0.750			
0.3356	21478.41	3.9030	3.9030	1.0146	7.46	1.47	0.750			
0.3386	21671.58	3.9000	3.9001	1.0293	7.45	1.46	0.750			
0.3417	21870.47	3.8970	3.8971	1.0371	7.44	1.45	0.750			
0.3449	22071.92	3.8940	3.8939	1.0511	7.42	1.43	0.750			
0.3480	22273.12	3.8910	3.8910	1.0541	7.42	1.43	0.750			
0.3512	22476.44	3.8880	3.8880	1.0661	7.42	1.43	0.750			
0.3544	22682.33	3.8850	3.8851	1.0772	7.41	1.42	0.750			
0.3577	22890.17	3.8820	3.8819	1.0899	7.41	1.42	0.750			
0.3609	23097.57	3.8790	3.8791	1.0950	7.40	1.41	0.750			
0.3642	23309.75	3.8760	3.8760	1.1176	7.39	1.40	0.750			
0.3676	23524.16	3.8730	3.8731	1.1359	7.37	1.38	0.750			
0.3710	23745.86	3.8700	3.8697	1.1545	7.36	1.37	0.750			
0.3745	23968.22	3.8670	3.8670	1.1703	7.35	1.36	0.750			
0.3781	24195.65	3.8640	3.8641	1.1898	7.34	1.35	0.750			
0.3817	24429.06	3.8610	3.8610	1.2038	7.33	1.34	0.750			
0.3853	24660.39	3.8580	3.8580	1.2108	7.32	1.33	0.750			
0.3889	24892.24	3.8550	3.8551	1.2295	7.30	1.31	0.750			
0.3926	25129.18	3.8520	3.8521	1.2531	7.29	1.30	0.750			
0.3964	25370.59	3.8490	3.8488	1.2717	7.27	1.28	0.750			
0.4002	25614.43	3.8460	3.8461	1.2873	7.26	1.27	0.750			
0.4040	25858.89	3.8430	3.8431	1.3215	7.24	1.25	0.750			
0.4081	26120.63	3.8400	3.8397	1.3499	7.23	1.24	0.750			
0.4122	26381.18	3.8370	3.8370	1.3896	7.21	1.22	0.750	0.418	0.947	
0.4164	26650.76	3.8340	3.8342	1.4165	7.20	1.21	0.750			
0.4208	26929.82	3.8310	3.8309	1.4441	7.18	1.19	0.750			
0.4253	27220.37	3.8280	3.8279	1.4566	7.16	1.17	0.750			
0.4296	27493.44	3.8250	3.8249	1.4225	7.15	1.16	0.750			
0.4336	27749.05	3.8220	3.8224	1.4555	7.13	1.14	0.750			
0.4380	28033.68	3.8190	3.8186	1.4915	7.11	1.12	0.750			
0.4425	28319.90	3.8160	3.8168	1.5403	7.09	1.10	0.750			
0.4471	28616.89	3.8130	3.8133	1.6011	7.06	1.07	0.750			
0.4524	28951.99	3.8100	3.8095	1.6733	7.04	1.05	0.750			
0.4571	29254.85	3.8070	3.8071	1.6370	7.02	1.03	0.750			
0.4622	29580.42	3.8040	3.8043	1.6935	6.99	1.00	0.750			
0.4675	29922.19	3.8010	3.8010	1.7500	6.97	0.98	0.750			
0.4726	30248.41	3.7980	3.7981	1.7550	6.94	0.95	0.750			
0.4779	30586.46	3.7950	3.7950	1.7901	6.92	0.93	0.750			
0.4833	30932.91	3.7920	3.7918	1.8102	6.90	0.91	0.750			
0.4888	31283.96	3.7890	3.7891	1.8309	6.87	0.88	0.750			
0.4944	31642.21	3.7860	3.7861	1.8752	6.84	0.85	0.750			
0.5001	32008.62	3.7830	3.7832	1.9041	6.81	0.82	0.750			
0.5059	32376.97	3.7800	3.7801	1.9341	6.78	0.79	0.750			
0.5117	32749.53	3.7770	3.7767	1.9765	6.75	0.76	0.750			
0.5178	33139.13	3.7740	3.7742	1.9880	6.73	0.74	0.750			
0.5236	33508.77	3.7710	3.7711	2.0296	6.69	0.70	0.750			
0.5298	33904.82	3.7680	3.7678	2.0346	6.65	0.66	0.750			
0.5360	34302.55	3.7650	3.7651	2.0956	6.62	0.63	0.750			
0.5423	34709.72	3.7620	3.7617	2.1147	6.59	0.60	0.750			
0.5488	35121.88	3.7590	3.7590	2.1402	6.55	0.56	0.750			
0.5552	35531.59	3.7560	3.7563	2.1601	6.51	0.52	0.750			
0.5618	35953.49	3.7530	3.7530	2.1810	6.47	0.48	0.750			
0.5683	36371.12	3.7500	3.7501	2.2429	6.43	0.44	0.750			
0.5752	36815.68	3.7470	3.7470	2.3044	6.40	0.41	0.750			
0.5824	37274.87	3.7440	3.7440	2.2439	6.36	0.37	0.750			
0.5889	37692.63	3.7410	3.7413	2.1719	6.32	0.33	0.750			
0.5952	38093.58	3.7380	3.7373	2.1565	6.28	0.29	0.750			
0.6014	38489.42	3.7350	3.7350	2.3235	6.25	0.26	0.750			
0.6090	38975.99	3.7320	3.7318	2.5481	6.21	0.22	0.750			
0.6171	39492.63	3.7290	3.7290	2.6285	6.17	0.18	0.750			
0.6247	39979.40	3.7260	3.7261	2.6267	6.14	0.15	0.750			
0.6326	40487.64	3.7230	3.7229	2.6272	6.11	0.12	0.750			
0.6408	41010.72	3.7200	3.7199	2.5297	6.07	0.08	0.750			
0.6482	41483.77	3.7170	3.7172	2.3778	6.04	0.05	0.750			
0.6551	41927.75	3.7140	3.7139	2.2030	6.02	0.03	0.750			
0.6614	42328.89	3.7110	3.7112	1.9900	6.00	0.01	0.750			
0.6673	42705.39	3.7080	3.7081	1.8469	5.98	-0.01	0.750			
0.6723	43029.01	3.7050	3.7049	1.6013	5.97	-0.02	0.750			
0.6765	43296.62	3.7020	3.7022	1.3905	5.96	-0.03	0.750			
0.6805	43549.66	3.6990	3.6991	1.2654	5.95	-0.04	0.750			
0.6840	43775.31	3.6960	3.6958	1.1395	5.95	-0.04	0.750			
0.6871	43976.68	3.6930	3.6929	1.0388	5.95	-0.04	0.750			
0.6900	44161.59	3.6900	3.6902	0.9662	5.95	-0.04	0.750			
0.6928	44340.51	3.6870	3.6870	0.9167	5.95	-0.04	0.750			
0.6955	44508.82	3.6840	3.6837	0.8631	5.95	-0.04	0.750			
0.6979	44667.16	3.6810	3.6811	0.8199	5.95	-0.04	0.750			
0.7004	44826.13	3.6780	3.6780	0.7848	5.95	-0.04	0.750			
0.7027	44974.33	3.6750	3.6751	0.7519	5.95	-0.04	0.750			
0.7048	45110.29	3.6720	3.6720	0.7051	5.95	-0.04	0.750			
0.7069	45243.90	3.6690	3.6691	0.6740	5.95	-0.04	0.750			
0.7089	45368.95	3.6660	3.6659	0.6371	5.95	-0.04	0.750			
0.7108	45489.88	3.6630	3.6630	0.6009	5.96	-0.03	0.750			
0.7125	45602.03	3.6600	3.6600	0.5651	5.96	-0.03	0.750			
0.7142	45708.67	3.6570	3.6570	0.5284	5.97	-0.02	0.750			
0.7157	45805.55	3.6540	3.6540	0.4838	5.97	-0.02	0.750			
0.7171	45893.97	3.6510	3.6508	0.4438	5.98	-0.01	0.750			
0.7184	45975.88	3.6480	3.6481	0.4084	5.98	-0.01	0.750			
0.7195	46050.02	3.6450	3.6450	0.3718	5.99	-0.00	0.750			
0.7206	46117.84	3.6420	3.6419	0.3366	5.99	-0.00	0.750			
0.7215	46178.47	3.6390	3.6390	0.3002	5.99	0.00	0.750			
0.7224	46233.46	3.6360	3.6361	0.2691	5.99	0.00	0.750			
0.7232	46282.89	3.6330	3.6328	0.2332	6.00	0.01	0.750			
0.7238	46324.70	3.6300	3.6298	0.1981	6.00	0.01	0.750			
0.7244	46359.18	3.6270	3.6270	0.1613	6.00	0.01	0.750			
0.7248	46386.89	3.6240	3.6244	0.1247	6.00	0.01	0.750			
0.7251	46409.13	3.6210	3.6217	0.0865	6.00	0.01	0.750			
0.7254	46423.20	3.6180	3.6181	0.0415	6.00	0.01	0.750			
0.7254	46426.78	3.6150	3.6164	-0.0042	6.00	0.01	0.750			
