Ah_balance (normalized)	Ah_balance (mAh)	Voltage - fit (V)	Voltage -  interpolate (V)	dQ/dV (1/V)	Temperature (°C)	Temperature - diff (°C)	Current (C)	R_DC 0ms (mOhm)	R_DC 50ms (mOhm)	R_DC 50 ms PEC (mOhm)
0.0943	6032.05	4.0060	4.0057	-0.1074	5.97	0.00	-0.750			
0.0946	6056.14	4.0030	4.0027	-0.1348	5.97	0.00	-0.750			
0.0951	6083.76	4.0000	4.0001	-0.1599	5.97	0.00	-0.750			
0.0956	6117.03	3.9970	3.9970	-0.1854	5.97	0.00	-0.750			
0.0962	6155.18	3.9940	3.9941	-0.2105	5.97	0.00	-0.750			
0.0968	6198.39	3.9910	3.9908	-0.2352	5.97	0.00	-0.750			
0.0976	6245.96	3.9880	3.9881	-0.2583	5.97	0.00	-0.750			
0.0984	6297.58	3.9850	3.9849	-0.2835	5.97	0.00	-0.750			
0.0993	6354.44	3.9820	3.9821	-0.3080	5.97	0.00	-0.750			
0.1003	6416.17	3.9790	3.9790	-0.3317	5.97	0.00	-0.750			
0.1013	6481.59	3.9760	3.9760	-0.3558	5.97	0.00	-0.750			
0.1024	6552.15	3.9730	3.9731	-0.3824	5.97	0.00	-0.750			
0.1036	6627.81	3.9700	3.9700	-0.4088	5.97	0.00	-0.750			
0.1048	6708.96	3.9670	3.9670	-0.4355	5.97	0.00	-0.750			
0.1062	6794.71	3.9640	3.9640	-0.4624	5.97	0.00	-0.750			
0.1076	6887.06	3.9610	3.9610	-0.4877	5.97	0.00	-0.750			
0.1091	6984.08	3.9580	3.9580	-0.5095	5.97	0.00	-0.750			
0.1107	7084.25	3.9550	3.9550	-0.5314	5.97	0.00	-0.750			
0.1123	7188.18	3.9520	3.9521	-0.5512	5.97	0.00	-0.750			
0.1140	7295.37	3.9490	3.9491	-0.5720	5.97	0.00	-0.750			
0.1157	7407.17	3.9460	3.9460	-0.5908	5.97	0.00	-0.750			
0.1175	7521.66	3.9430	3.9430	-0.6126	5.97	0.00	-0.750			
0.1194	7643.05	3.9400	3.9400	-0.6313	5.97	0.00	-0.750			
0.1213	7766.36	3.9370	3.9369	-0.6474	5.97	0.00	-0.750			
0.1233	7893.57	3.9340	3.9340	-0.6580	5.97	0.00	-0.750			
0.1254	8022.73	3.9310	3.9310	-0.6623	5.97	0.00	-0.750			
0.1273	8148.96	3.9280	3.9281	-0.6745	5.97	0.00	-0.750			
0.1293	8278.32	3.9250	3.9250	-0.6898	5.97	0.00	-0.750			
0.1314	8410.36	3.9220	3.9220	-0.6970	5.97	0.00	-0.750			
0.1335	8546.36	3.9190	3.9189	-0.7127	5.97	0.00	-0.750			
0.1357	8685.39	3.9160	3.9161	-0.7246	5.97	0.00	-0.750			
0.1379	8827.23	3.9130	3.9131	-0.7352	5.97	0.00	-0.750			
0.1402	8972.11	3.9100	3.9099	-0.7418	5.97	0.00	-0.750			
0.1424	9113.16	3.9070	3.9070	-0.7423	5.97	0.00	-0.750			
0.1446	9256.12	3.9040	3.9040	-0.7408	5.98	0.01	-0.750			
0.1469	9398.89	3.9010	3.9011	-0.7495	5.98	0.01	-0.750			
0.1491	9542.96	3.8980	3.8982	-0.7492	5.98	0.01	-0.750			
0.1514	9686.57	3.8950	3.8948	-0.7533	5.98	0.01	-0.750			
0.1536	9830.27	3.8920	3.8921	-0.7600	5.99	0.02	-0.750			
0.1559	9977.22	3.8890	3.8890	-0.7647	6.00	0.03	-0.750			
0.1582	10124.07	3.8860	3.8860	-0.7687	6.00	0.03	-0.750			
0.1606	10275.46	3.8830	3.8829	-0.7739	6.01	0.04	-0.750			
0.1629	10423.72	3.8800	3.8801	-0.7683	6.01	0.04	-0.750			
0.1652	10573.07	3.8770	3.8770	-0.7677	6.02	0.05	-0.750			
0.1675	10717.02	3.8740	3.8741	-0.7714	6.02	0.05	-0.750			
0.1697	10861.26	3.8710	3.8711	-0.7796	6.02	0.05	-0.750			
0.1721	11013.40	3.8680	3.8678	-0.7850	6.03	0.06	-0.750			
0.1745	11165.32	3.8650	3.8650	-0.7917	6.03	0.06	-0.750			
0.1769	11319.20	3.8620	3.8623	-0.7975	6.03	0.06	-0.750			
0.1793	11475.70	3.8590	3.8590	-0.8088	6.04	0.07	-0.750			
0.1817	11631.18	3.8560	3.8559	-0.8077	6.04	0.07	-0.750			
0.1841	11784.37	3.8530	3.8528	-0.8029	6.05	0.08	-0.750			
0.1865	11937.38	3.8500	3.8502	-0.7996	6.05	0.08	-0.750			
0.1890	12092.98	3.8470	3.8470	-0.8030	6.05	0.08	-0.750			
0.1914	12246.61	3.8440	3.8439	-0.8084	6.06	0.09	-0.750			
0.1938	12402.28	3.8410	3.8410	-0.8058	6.07	0.10	-0.750			
0.1962	12556.01	3.8380	3.8380	-0.8017	6.07	0.10	-0.750			
0.1986	12711.60	3.8350	3.8351	-0.8041	6.08	0.11	-0.750			
0.2010	12865.58	3.8320	3.8320	-0.8056	6.09	0.12	-0.750			
0.2034	13019.21	3.8290	3.8290	-0.8081	6.10	0.13	-0.750			
0.2058	13173.82	3.8260	3.8259	-0.8029	6.11	0.14	-0.750			
0.2082	13326.29	3.8230	3.8230	-0.7990	6.12	0.15	-0.750			
0.2107	13482.86	3.8200	3.8201	-0.8086	6.13	0.16	-0.750			
0.2131	13637.94	3.8170	3.8169	-0.8069	6.13	0.16	-0.750			
0.2155	13791.24	3.8140	3.8140	-0.8115	6.14	0.17	-0.750			
0.2179	13947.97	3.8110	3.8110	-0.8124	6.14	0.17	-0.750			
0.2204	14103.94	3.8080	3.8080	-0.8143	6.14	0.17	-0.750			
0.2229	14262.94	3.8050	3.8050	-0.8175	6.15	0.18	-0.750			
0.2253	14419.66	3.8020	3.8020	-0.8183	6.15	0.18	-0.750			
0.2277	14574.84	3.7990	3.7990	-0.8204	6.16	0.19	-0.750			
0.2302	14734.32	3.7960	3.7959	-0.8158	6.17	0.20	-0.750			
0.2327	14890.66	3.7930	3.7929	-0.8108	6.18	0.21	-0.750			
0.2351	15046.36	3.7900	3.7900	-0.8124	6.18	0.21	-0.750			
0.2375	15201.69	3.7870	3.7871	-0.8098	6.19	0.22	-0.750			
0.2399	15356.11	3.7840	3.7839	-0.8109	6.19	0.22	-0.750			
0.2423	15509.89	3.7810	3.7810	-0.8084	6.20	0.23	-0.750			
0.2448	15665.30	3.7780	3.7780	-0.8094	6.20	0.23	-0.750			
0.2473	15824.32	3.7750	3.7750	-0.8203	6.21	0.24	-0.750			
0.2497	15982.91	3.7720	3.7720	-0.8177	6.21	0.24	-0.750			
0.2522	16139.03	3.7690	3.7690	-0.8136	6.22	0.25	-0.750			
0.2546	16295.08	3.7660	3.7660	-0.8179	6.23	0.26	-0.750			
0.2571	16452.82	3.7630	3.7630	-0.8136	6.23	0.26	-0.750			
0.2595	16609.48	3.7600	3.7598	-0.8143	6.24	0.27	-0.750			
0.2619	16764.08	3.7570	3.7574	-0.8172	6.25	0.28	-0.750			
0.2644	16920.01	3.7540	3.7540	-0.8211	6.26	0.29	-0.750			
0.2669	17078.97	3.7510	3.7508	-0.8283	6.26	0.29	-0.750			
0.2694	17239.10	3.7480	3.7480	-0.8265	6.27	0.30	-0.750			
0.2719	17399.82	3.7450	3.7450	-0.8349	6.27	0.30	-0.750			
0.2744	17560.82	3.7420	3.7422	-0.8342	6.28	0.31	-0.750			
0.2769	17720.54	3.7390	3.7390	-0.8323	6.29	0.32	-0.750			
0.2794	17879.34	3.7360	3.7359	-0.8335	6.29	0.32	-0.750			
0.2819	18038.71	3.7330	3.7330	-0.8334	6.30	0.33	-0.750			
0.2844	18201.45	3.7300	3.7299	-0.8380	6.30	0.33	-0.750			
0.2869	18361.75	3.7270	3.7272	-0.8376	6.31	0.34	-0.750			
0.2894	18522.00	3.7240	3.7240	-0.8366	6.32	0.35	-0.750			
0.2919	18682.59	3.7210	3.7210	-0.8444	6.32	0.35	-0.750			
0.2944	18843.24	3.7180	3.7179	-0.8479	6.33	0.36	-0.750			
0.2970	19008.21	3.7150	3.7149	-0.8588	6.33	0.36	-0.750			
0.2996	19173.68	3.7120	3.7122	-0.8624	6.34	0.37	-0.750			
0.3022	19341.28	3.7090	3.7090	-0.8735	6.34	0.37	-0.750			
0.3048	19509.88	3.7060	3.7060	-0.8725	6.34	0.37	-0.750			
0.3074	19676.24	3.7030	3.7030	-0.8743	6.35	0.38	-0.750			
0.3101	19845.60	3.7000	3.7000	-0.8826	6.35	0.38	-0.750			
0.3127	20013.47	3.6970	3.6971	-0.8889	6.35	0.38	-0.750			
0.3154	20183.83	3.6940	3.6939	-0.9041	6.36	0.39	-0.750			
0.3181	20359.45	3.6910	3.6910	-0.9135	6.37	0.40	-0.750			
0.3209	20536.41	3.6880	3.6878	-0.9199	6.38	0.41	-0.750			
0.3237	20715.77	3.6850	3.6852	-0.9303	6.39	0.42	-0.750			
0.3265	20893.09	3.6820	3.6820	-0.9423	6.39	0.42	-0.750			
0.3293	21076.81	3.6790	3.6789	-0.9452	6.40	0.43	-0.750			
0.3321	21256.55	3.6760	3.6760	-0.9510	6.40	0.43	-0.750			
0.3350	21440.04	3.6730	3.6730	-0.9591	6.41	0.44	-0.750			
0.3379	21627.24	3.6700	3.6701	-0.9778	6.41	0.44	-0.750			
0.3409	21815.98	3.6670	3.6669	-0.9962	6.42	0.45	-0.750			
0.3439	22009.49	3.6640	3.6639	-1.0005	6.42	0.45	-0.750			
0.3469	22200.84	3.6610	3.6609	-1.0091	6.43	0.46	-0.750			
0.3500	22398.76	3.6580	3.6583	-1.0302	6.43	0.46	-0.750			
0.3531	22596.62	3.6550	3.6548	-1.0349	6.44	0.47	-0.750			
0.3562	22795.85	3.6520	3.6520	-1.0503	6.44	0.47	-0.750			
0.3593	22995.20	3.6490	3.6491	-1.0567	6.45	0.48	-0.750			
0.3625	23200.69	3.6460	3.6460	-1.0894	6.45	0.48	-0.750			
0.3658	23414.19	3.6430	3.6429	-1.0984	6.45	0.48	-0.750			
0.3691	23625.13	3.6400	3.6400	-1.1099	6.45	0.48	-0.750			
0.3725	23840.64	3.6370	3.6370	-1.1170	6.45	0.48	-0.750			
0.3759	24057.37	3.6340	3.6339	-1.1346	6.45	0.48	-0.750			
0.3793	24275.04	3.6310	3.6310	-1.1440	6.45	0.48	-0.750			
0.3827	24494.60	3.6280	3.6279	-1.1552	6.45	0.48	-0.750			
0.3862	24714.52	3.6250	3.6251	-1.1674	6.45	0.48	-0.750			
0.3898	24944.15	3.6220	3.6220	-1.1940	6.45	0.48	-0.750			
0.3933	25174.24	3.6190	3.6190	-1.2063	6.46	0.49	-0.750			
0.3970	25408.13	3.6160	3.6160	-1.2231	6.47	0.50	-0.750			
0.4007	25642.22	3.6130	3.6131	-1.2343	6.47	0.50	-0.750			
0.4044	25881.28	3.6100	3.6100	-1.2577	6.47	0.50	-0.750			
0.4082	26123.52	3.6070	3.6069	-1.2833	6.47	0.50	-0.750			
0.4121	26372.73	3.6040	3.6042	-1.2945	6.47	0.50	-0.750			
0.4160	26624.27	3.6010	3.6009	-1.3100	6.47	0.50	-0.750			
0.4200	26880.53	3.5980	3.5976	-1.3210	6.47	0.50	-0.750	0.487	1.133	
0.4240	27133.07	3.5950	3.5949	-1.3347	6.47	0.50	-0.750			
0.4279	27388.64	3.5920	3.5920	-1.3426	6.47	0.50	-0.750			
0.4320	27645.63	3.5890	3.5888	-1.3470	6.47	0.50	-0.750			
0.4360	27904.88	3.5860	3.5861	-1.3765	6.47	0.50	-0.750			
0.4402	28174.49	3.5830	3.5830	-1.3997	6.47	0.50	-0.750			
0.4445	28445.15	3.5800	3.5800	-1.4246	6.47	0.50	-0.750			
0.4488	28722.53	3.5770	3.5771	-1.4482	6.47	0.50	-0.750			
0.4531	29001.45	3.5740	3.5739	-1.4546	6.47	0.50	-0.750			
0.4576	29286.41	3.5710	3.5708	-1.4705	6.47	0.50	-0.750			
0.4620	29569.05	3.5680	3.5683	-1.4900	6.47	0.50	-0.750			
0.4665	29854.77	3.5650	3.5649	-1.5012	6.47	0.50	-0.750			
0.4711	30149.29	3.5620	3.5619	-1.5328	6.47	0.50	-0.750			
0.4756	30436.95	3.5590	3.5591	-1.5547	6.47	0.50	-0.750			
0.4804	30744.92	3.5560	3.5560	-1.5904	6.47	0.50	-0.750			
0.4851	31047.57	3.5530	3.5531	-1.6445	6.47	0.50	-0.750			
0.4900	31363.00	3.5500	3.5498	-1.6944	6.48	0.51	-0.750			
0.4953	31698.19	3.5470	3.5466	-1.7517	6.48	0.51	-0.750			
0.5007	32044.75	3.5440	3.5440	-1.7603	6.49	0.52	-0.750			
0.5062	32397.08	3.5410	3.5413	-1.7836	6.49	0.52	-0.750			
0.5115	32737.58	3.5380	3.5380	-1.7706	6.49	0.52	-0.750			
0.5167	33069.04	3.5350	3.5349	-1.7137	6.49	0.52	-0.750			
0.5216	33383.95	3.5320	3.5320	-1.7054	6.49	0.52	-0.750			
0.5268	33716.80	3.5290	3.5289	-1.7084	6.49	0.52	-0.750			
0.5320	34046.43	3.5260	3.5258	-1.7075	6.50	0.53	-0.750			
0.5371	34371.66	3.5230	3.5231	-1.7012	6.51	0.54	-0.750			
0.5421	34696.41	3.5200	3.5199	-1.7114	6.51	0.54	-0.750			
0.5472	35022.16	3.5170	3.5171	-1.7102	6.51	0.54	-0.750			
0.5523	35347.24	3.5140	3.5142	-1.7266	6.51	0.54	-0.750			
0.5576	35688.73	3.5110	3.5109	-1.7465	6.52	0.55	-0.750			
0.5630	36029.84	3.5080	3.5080	-1.7513	6.52	0.55	-0.750			
0.5682	36365.70	3.5050	3.5050	-1.7534	6.53	0.56	-0.750			
0.5735	36707.07	3.5020	3.5019	-1.7541	6.53	0.56	-0.750			
0.5788	37040.91	3.4990	3.4989	-1.7341	6.53	0.56	-0.750			
0.5840	37375.18	3.4960	3.4960	-1.7154	6.53	0.56	-0.750			
0.5890	37698.93	3.4930	3.4932	-1.6990	6.53	0.56	-0.750			
0.5942	38025.68	3.4900	3.4899	-1.6963	6.54	0.57	-0.750			
0.5992	38350.08	3.4870	3.4871	-1.6833	6.55	0.58	-0.750			
0.6042	38668.81	3.4840	3.4841	-1.6617	6.56	0.59	-0.750			
0.6092	38987.91	3.4810	3.4810	-1.6503	6.57	0.60	-0.750			
0.6142	39307.19	3.4780	3.4778	-1.6273	6.57	0.60	-0.750			
0.6191	39619.27	3.4750	3.4750	-1.6019	6.57	0.60	-0.750			
0.6238	39920.59	3.4720	3.4721	-1.5768	6.57	0.60	-0.750			
0.6285	40223.26	3.4690	3.4689	-1.5570	6.58	0.61	-0.750			
0.6331	40519.42	3.4660	3.4659	-1.5290	6.60	0.63	-0.750			
0.6377	40814.25	3.4630	3.4631	-1.5205	6.61	0.64	-0.750			
0.6423	41104.56	3.4600	3.4600	-1.4999	6.62	0.65	-0.750			
0.6467	41385.97	3.4570	3.4570	-1.4825	6.63	0.66	-0.750			
0.6512	41674.04	3.4540	3.4540	-1.4593	6.63	0.66	-0.750			
0.6555	41953.90	3.4510	3.4509	-1.4420	6.64	0.67	-0.750			
0.6598	42227.13	3.4480	3.4480	-1.4197	6.65	0.68	-0.750			
0.6640	42498.08	3.4450	3.4450	-1.3846	6.66	0.69	-0.750			
0.6682	42763.27	3.4420	3.4419	-1.3599	6.67	0.70	-0.750			
0.6722	43020.05	3.4390	3.4390	-1.3299	6.68	0.71	-0.750			
0.6761	43269.37	3.4360	3.4361	-1.2990	6.70	0.73	-0.750			
0.6800	43520.25	3.4330	3.4329	-1.2814	6.71	0.74	-0.750			
0.6838	43762.20	3.4300	3.4299	-1.2472	6.72	0.75	-0.750			
0.6875	43999.10	3.4270	3.4272	-1.2184	6.73	0.76	-0.750			
0.6911	44232.90	3.4240	3.4240	-1.1976	6.74	0.77	-0.750			
0.6947	44460.80	3.4210	3.4210	-1.1621	6.76	0.79	-0.750			
0.6981	44680.01	3.4180	3.4178	-1.1322	6.77	0.80	-0.750			
0.7014	44892.39	3.4150	3.4150	-1.1064	6.78	0.81	-0.750			
0.7047	45103.84	3.4120	3.4119	-1.0748	6.79	0.82	-0.750			
0.7080	45309.08	3.4090	3.4089	-1.0463	6.80	0.83	-0.750			
0.7110	45504.93	3.4060	3.4062	-1.0103	6.81	0.84	-0.750			
0.7140	45696.38	3.4030	3.4030	-0.9903	6.82	0.85	-0.750			
0.7170	45885.81	3.4000	3.3999	-0.9635	6.83	0.86	-0.750			
0.7198	46065.94	3.3970	3.3969	-0.9244	6.85	0.88	-0.750			
0.7225	46240.17	3.3940	3.3939	-0.8989	6.86	0.89	-0.750			
0.7252	46414.01	3.3910	3.3911	-0.8803	6.87	0.90	-0.750			
0.7278	46577.94	3.3880	3.3879	-0.8510	6.88	0.91	-0.750			
0.7303	46737.75	3.3850	3.3850	-0.8227	6.89	0.92	-0.750			
0.7327	46890.62	3.3820	3.3821	-0.7956	6.90	0.93	-0.750			
0.7351	47044.25	3.3790	3.3790	-0.7790	6.90	0.93	-0.750			
0.7374	47192.99	3.3760	3.3760	-0.7448	6.91	0.94	-0.750			
0.7396	47333.84	3.3730	3.3730	-0.7291	6.92	0.95	-0.750			
