Ah_balance (normalized)	Ah_balance (mAh)	Voltage - fit (V)	Voltage -  interpolate (V)	dQ/dV (1/V)	Temperature (°C)	Temperature - diff (°C)	Current (C)	R_DC 0ms (mOhm)	R_DC 50ms (mOhm)	R_DC 50 ms PEC (mOhm)
0.0950	6077.02	4.0030	4.0039	-0.1564	6.00	0.01	-0.750			
0.0954	6108.23	4.0000	4.0002	-0.1687	6.00	0.01	-0.750			
0.0959	6140.80	3.9970	3.9969	-0.1829	6.00	0.01	-0.750			
0.0965	6176.72	3.9940	3.9939	-0.2018	6.00	0.01	-0.750			
0.0971	6215.54	3.9910	3.9911	-0.2191	6.00	0.01	-0.750			
0.0978	6260.15	3.9880	3.9879	-0.2416	5.99	0.00	-0.750			
0.0986	6308.87	3.9850	3.9849	-0.2648	5.99	0.00	-0.750			
0.0994	6361.41	3.9820	3.9822	-0.2879	5.99	-0.00	-0.750			
0.1003	6418.63	3.9790	3.9791	-0.3122	5.99	-0.00	-0.750			
0.1013	6480.60	3.9760	3.9760	-0.3395	5.98	-0.01	-0.750			
0.1023	6548.18	3.9730	3.9729	-0.3635	5.98	-0.01	-0.750			
0.1034	6620.33	3.9700	3.9701	-0.3901	5.98	-0.01	-0.750			
0.1047	6697.98	3.9670	3.9671	-0.4163	5.97	-0.02	-0.750			
0.1059	6780.49	3.9640	3.9641	-0.4432	5.97	-0.02	-0.750			
0.1073	6868.34	3.9610	3.9610	-0.4684	5.96	-0.03	-0.750			
0.1088	6960.86	3.9580	3.9580	-0.4916	5.96	-0.03	-0.750			
0.1103	7058.11	3.9550	3.9550	-0.5130	5.95	-0.04	-0.750			
0.1119	7160.02	3.9520	3.9522	-0.5348	5.95	-0.04	-0.750			
0.1135	7263.50	3.9490	3.9491	-0.5538	5.95	-0.04	-0.750			
0.1152	7371.41	3.9460	3.9459	-0.5740	5.95	-0.04	-0.750			
0.1169	7483.47	3.9430	3.9429	-0.5925	5.95	-0.04	-0.750			
0.1187	7598.64	3.9400	3.9400	-0.6146	5.95	-0.04	-0.750			
0.1206	7720.17	3.9370	3.9370	-0.6288	5.95	-0.04	-0.750			
0.1226	7844.01	3.9340	3.9340	-0.6494	5.95	-0.04	-0.750			
0.1245	7970.55	3.9310	3.9312	-0.6615	5.95	-0.04	-0.750			
0.1265	8096.94	3.9280	3.9278	-0.6747	5.95	-0.04	-0.750			
0.1286	8228.67	3.9250	3.9250	-0.6870	5.95	-0.04	-0.750			
0.1306	8361.12	3.9220	3.9220	-0.7012	5.94	-0.05	-0.750			
0.1328	8499.19	3.9190	3.9189	-0.7137	5.94	-0.05	-0.750			
0.1350	8637.99	3.9160	3.9160	-0.7246	5.94	-0.05	-0.750			
0.1371	8776.67	3.9130	3.9130	-0.7306	5.94	-0.05	-0.750			
0.1394	8918.81	3.9100	3.9101	-0.7395	5.94	-0.05	-0.750			
0.1416	9061.48	3.9070	3.9069	-0.7440	5.94	-0.05	-0.750			
0.1438	9206.35	3.9040	3.9040	-0.7507	5.95	-0.04	-0.750			
0.1461	9351.40	3.9010	3.9010	-0.7501	5.95	-0.04	-0.750			
0.1484	9495.45	3.8980	3.8980	-0.7554	5.95	-0.04	-0.750			
0.1506	9639.71	3.8950	3.8949	-0.7592	5.95	-0.04	-0.750			
0.1529	9784.49	3.8920	3.8920	-0.7712	5.95	-0.04	-0.750			
0.1552	9933.09	3.8890	3.8888	-0.7770	5.95	-0.04	-0.750			
0.1576	10084.37	3.8860	3.8860	-0.7762	5.95	-0.04	-0.750			
0.1599	10236.75	3.8830	3.8830	-0.7812	5.95	-0.04	-0.750			
0.1623	10385.96	3.8800	3.8803	-0.7831	5.95	-0.04	-0.750			
0.1646	10536.67	3.8770	3.8768	-0.7837	5.95	-0.04	-0.750			
0.1669	10683.93	3.8740	3.8740	-0.7833	5.96	-0.03	-0.750			
0.1693	10834.14	3.8710	3.8709	-0.7876	5.96	-0.03	-0.750			
0.1717	10987.42	3.8680	3.8681	-0.7927	5.97	-0.02	-0.750			
0.1741	11141.59	3.8650	3.8648	-0.7903	5.97	-0.02	-0.750			
0.1765	11292.95	3.8620	3.8620	-0.7900	5.97	-0.02	-0.750			
0.1788	11442.94	3.8590	3.8590	-0.7931	5.98	-0.01	-0.750			
0.1812	11593.60	3.8560	3.8560	-0.7959	5.98	-0.01	-0.750			
0.1835	11746.17	3.8530	3.8530	-0.8035	5.98	-0.01	-0.750			
0.1860	11902.14	3.8500	3.8500	-0.8049	5.99	-0.00	-0.750			
0.1884	12057.89	3.8470	3.8470	-0.8094	5.99	0.00	-0.750			
0.1909	12214.61	3.8440	3.8441	-0.8178	6.00	0.01	-0.750			
0.1933	12372.02	3.8410	3.8409	-0.8141	6.00	0.01	-0.750			
0.1958	12529.36	3.8380	3.8379	-0.8053	6.00	0.01	-0.750			
0.1982	12682.44	3.8350	3.8350	-0.8100	6.01	0.02	-0.750			
0.2006	12836.97	3.8320	3.8321	-0.8123	6.01	0.02	-0.750			
0.2030	12992.63	3.8290	3.8288	-0.8328	6.02	0.03	-0.750			
0.2055	13152.87	3.8260	3.8259	-0.8379	6.02	0.03	-0.750			
0.2081	13321.08	3.8230	3.8228	-0.8323	6.02	0.03	-0.750			
0.2107	13484.30	3.8200	3.8201	-0.8260	6.03	0.04	-0.750			
0.2132	13645.77	3.8170	3.8170	-0.8267	6.03	0.04	-0.750			
0.2156	13798.49	3.8140	3.8141	-0.8255	6.04	0.05	-0.750			
0.2180	13952.38	3.8110	3.8105	-0.8168	6.04	0.05	-0.750			
0.2204	14106.67	3.8080	3.8080	-0.8161	6.04	0.05	-0.750			
0.2229	14267.95	3.8050	3.8051	-0.8256	6.05	0.06	-0.750			
0.2254	14428.75	3.8020	3.8020	-0.8266	6.05	0.06	-0.750			
0.2280	14591.12	3.7990	3.7989	-0.8143	6.06	0.07	-0.750			
0.2304	14743.49	3.7960	3.7960	-0.7908	6.06	0.07	-0.750			
0.2327	14891.06	3.7930	3.7932	-0.7908	6.06	0.07	-0.750			
0.2350	15042.72	3.7900	3.7900	-0.7947	6.07	0.08	-0.750			
0.2374	15192.06	3.7870	3.7869	-0.8004	6.07	0.08	-0.750			
0.2398	15345.46	3.7840	3.7840	-0.8110	6.08	0.09	-0.750			
0.2422	15503.04	3.7810	3.7811	-0.8264	6.08	0.09	-0.750			
0.2448	15664.06	3.7780	3.7781	-0.8450	6.09	0.10	-0.750			
0.2473	15829.75	3.7750	3.7750	-0.8544	6.10	0.11	-0.750			
0.2499	15995.88	3.7720	3.7720	-0.8398	6.10	0.11	-0.750			
0.2525	16159.34	3.7690	3.7689	-0.8337	6.11	0.12	-0.750			
0.2550	16318.56	3.7660	3.7663	-0.8307	6.11	0.12	-0.750			
0.2574	16476.61	3.7630	3.7629	-0.8254	6.12	0.13	-0.750			
0.2599	16632.72	3.7600	3.7598	-0.8226	6.13	0.14	-0.750			
0.2623	16788.51	3.7570	3.7572	-0.8238	6.13	0.14	-0.750			
0.2648	16947.05	3.7540	3.7540	-0.8300	6.13	0.14	-0.750			
0.2673	17108.92	3.7510	3.7510	-0.8395	6.14	0.15	-0.750			
0.2698	17269.77	3.7480	3.7480	-0.8383	6.14	0.15	-0.750			
0.2724	17432.42	3.7450	3.7449	-0.8431	6.15	0.16	-0.750			
0.2749	17594.61	3.7420	3.7421	-0.8392	6.15	0.16	-0.750			
0.2774	17754.99	3.7390	3.7390	-0.8378	6.15	0.16	-0.750			
0.2800	17916.87	3.7360	3.7360	-0.8417	6.16	0.17	-0.750			
0.2825	18078.13	3.7330	3.7329	-0.8433	6.16	0.17	-0.750			
0.2850	18240.65	3.7300	3.7299	-0.8446	6.17	0.18	-0.750			
0.2875	18400.96	3.7270	3.7272	-0.8563	6.17	0.18	-0.750			
0.2901	18566.55	3.7240	3.7239	-0.8554	6.18	0.19	-0.750			
0.2927	18732.85	3.7210	3.7209	-0.8531	6.19	0.20	-0.750			
0.2952	18895.53	3.7180	3.7179	-0.8481	6.20	0.21	-0.750			
0.2978	19059.31	3.7150	3.7152	-0.8602	6.21	0.22	-0.750			
0.3004	19222.98	3.7120	3.7120	-0.8621	6.21	0.22	-0.750			
0.3030	19388.84	3.7090	3.7089	-0.8676	6.22	0.23	-0.750			
0.3055	19552.98	3.7060	3.7061	-0.8683	6.22	0.23	-0.750			
0.3082	19724.40	3.7030	3.7030	-0.8835	6.22	0.23	-0.750			
0.3109	19896.40	3.7000	3.6999	-0.8945	6.23	0.24	-0.750			
0.3135	20066.89	3.6970	3.6970	-0.8981	6.23	0.24	-0.750			
0.3162	20238.88	3.6940	3.6940	-0.9017	6.24	0.25	-0.750			
0.3190	20413.78	3.6910	3.6910	-0.9080	6.24	0.25	-0.750			
0.3217	20589.31	3.6880	3.6879	-0.9162	6.25	0.26	-0.750			
0.3245	20765.06	3.6850	3.6853	-0.9264	6.25	0.26	-0.750			
0.3272	20943.25	3.6820	3.6819	-0.9349	6.26	0.27	-0.750			
0.3301	21125.18	3.6790	3.6790	-0.9419	6.26	0.27	-0.750			
0.3329	21306.62	3.6760	3.6761	-0.9537	6.27	0.28	-0.750			
0.3358	21490.31	3.6730	3.6730	-0.9654	6.28	0.29	-0.750			
0.3387	21675.98	3.6700	3.6700	-0.9785	6.28	0.29	-0.750			
0.3416	21864.20	3.6670	3.6670	-0.9866	6.29	0.30	-0.750			
0.3446	22053.56	3.6640	3.6640	-1.0009	6.30	0.31	-0.750			
0.3476	22248.60	3.6610	3.6610	-1.0163	6.31	0.32	-0.750			
0.3507	22444.46	3.6580	3.6581	-1.0361	6.31	0.32	-0.750			
0.3538	22645.11	3.6550	3.6549	-1.0432	6.31	0.32	-0.750			
0.3570	22847.56	3.6520	3.6520	-1.0560	6.32	0.33	-0.750			
0.3602	23051.89	3.6490	3.6490	-1.0654	6.32	0.33	-0.750			
0.3634	23255.39	3.6460	3.6461	-1.0878	6.32	0.33	-0.750			
0.3666	23461.57	3.6430	3.6430	-1.1092	6.32	0.33	-0.750			
0.3700	23677.58	3.6400	3.6400	-1.1379	6.33	0.34	-0.750			
0.3734	23898.72	3.6370	3.6369	-1.1584	6.33	0.34	-0.750			
0.3770	24128.29	3.6340	3.6341	-1.1799	6.33	0.34	-0.750			
0.3806	24360.92	3.6310	3.6311	-1.1935	6.34	0.35	-0.750			
0.3842	24591.70	3.6280	3.6280	-1.1997	6.35	0.36	-0.750			
0.3878	24820.99	3.6250	3.6249	-1.2025	6.35	0.36	-0.750			
0.3914	25048.52	3.6220	3.6220	-1.2017	6.35	0.36	-0.750			
0.3950	25279.73	3.6190	3.6190	-1.2192	6.36	0.37	-0.750			
0.3987	25514.46	3.6160	3.6161	-1.2466	6.36	0.37	-0.750			
0.4025	25758.28	3.6130	3.6129	-1.2572	6.36	0.37	-0.750			
0.4063	26000.11	3.6100	3.6100	-1.2756	6.37	0.38	-0.750			
0.4101	26246.11	3.6070	3.6071	-1.2931	6.37	0.38	-0.750			
0.4140	26496.91	3.6040	3.6039	-1.3118	6.37	0.38	-0.750			
0.4180	26750.93	3.6010	3.6011	-1.3323	6.37	0.38	-0.750	0.469	1.130	
0.4220	27006.71	3.5980	3.5980	-1.3484	6.37	0.38	-0.750			
0.4260	27266.62	3.5950	3.5950	-1.3615	6.37	0.38	-0.750			
0.4302	27532.98	3.5920	3.5920	-1.3854	6.37	0.38	-0.750			
0.4344	27798.76	3.5890	3.5890	-1.4063	6.38	0.39	-0.750			
0.4386	28071.34	3.5860	3.5860	-1.4189	6.38	0.39	-0.750			
0.4429	28346.69	3.5830	3.5830	-1.4347	6.38	0.39	-0.750			
0.4472	28622.84	3.5800	3.5800	-1.4545	6.39	0.40	-0.750			
0.4516	28904.64	3.5770	3.5770	-1.4664	6.39	0.40	-0.750			
0.4561	29188.30	3.5740	3.5739	-1.5013	6.39	0.40	-0.750			
0.4606	29478.10	3.5710	3.5709	-1.5219	6.39	0.40	-0.750			
0.4652	29775.78	3.5680	3.5678	-1.5359	6.39	0.40	-0.750			
0.4699	30072.97	3.5650	3.5652	-1.5677	6.39	0.40	-0.750			
0.4746	30376.33	3.5620	3.5622	-1.5824	6.39	0.40	-0.750			
0.4794	30680.51	3.5590	3.5590	-1.5911	6.40	0.41	-0.750			
0.4842	30987.62	3.5560	3.5559	-1.6102	6.41	0.42	-0.750			
0.4891	31300.90	3.5530	3.5529	-1.5699	6.41	0.42	-0.750			
0.4940	31614.73	3.5500	3.5500	-1.5533	6.42	0.43	-0.750			
0.4985	31903.46	3.5470	3.5473	-1.5420	6.42	0.43	-0.750			
0.5028	32182.26	3.5440	3.5442	-1.5555	6.42	0.43	-0.750			
0.5075	32482.01	3.5410	3.5407	-1.5836	6.43	0.44	-0.750			
0.5122	32778.66	3.5380	3.5382	-1.6268	6.43	0.44	-0.750			
0.5172	33102.42	3.5350	3.5351	-1.6562	6.44	0.45	-0.750			
0.5225	33441.72	3.5320	3.5320	-1.7073	6.45	0.46	-0.750			
0.5277	33771.09	3.5290	3.5289	-1.7160	6.45	0.46	-0.750			
0.5328	34097.69	3.5260	3.5258	-1.7218	6.46	0.47	-0.750			
0.5379	34428.25	3.5230	3.5229	-1.7374	6.46	0.47	-0.750			
0.5432	34763.50	3.5200	3.5201	-1.7608	6.47	0.48	-0.750			
0.5487	35114.72	3.5170	3.5170	-1.7858	6.47	0.48	-0.750			
0.5540	35456.79	3.5140	3.5142	-1.7806	6.49	0.50	-0.750			
0.5593	35797.47	3.5110	3.5108	-1.7806	6.50	0.51	-0.750			
0.5647	36142.56	3.5080	3.5081	-1.7760	6.51	0.52	-0.750			
0.5699	36473.78	3.5050	3.5052	-1.7784	6.52	0.53	-0.750			
0.5754	36823.10	3.5020	3.5020	-1.7894	6.53	0.54	-0.750			
0.5807	37164.34	3.4990	3.4992	-1.7824	6.54	0.55	-0.750			
0.5861	37513.11	3.4960	3.4962	-1.7791	6.55	0.56	-0.750			
0.5915	37853.71	3.4930	3.4929	-1.7634	6.57	0.58	-0.750			
0.5967	38190.70	3.4900	3.4901	-1.7435	6.58	0.59	-0.750			
0.6019	38520.66	3.4870	3.4870	-1.7104	6.59	0.60	-0.750			
0.6070	38845.98	3.4840	3.4839	-1.7157	6.60	0.61	-0.750			
0.6121	39175.79	3.4810	3.4811	-1.7150	6.61	0.62	-0.750			
0.6172	39503.84	3.4780	3.4781	-1.7057	6.63	0.64	-0.750			
0.6224	39833.64	3.4750	3.4750	-1.6817	6.64	0.65	-0.750			
0.6275	40158.20	3.4720	3.4718	-1.6571	6.66	0.67	-0.750			
0.6325	40479.21	3.4690	3.4688	-1.6232	6.66	0.67	-0.750			
0.6373	40788.28	3.4660	3.4660	-1.6023	6.67	0.68	-0.750			
0.6420	41088.88	3.4630	3.4631	-1.5557	6.69	0.70	-0.750			
0.6465	41379.16	3.4600	3.4598	-1.5344	6.70	0.71	-0.750			
0.6511	41672.90	3.4570	3.4570	-1.5070	6.72	0.73	-0.750			
0.6557	41967.45	3.4540	3.4539	-1.4974	6.73	0.74	-0.750			
0.6602	42249.65	3.4510	3.4511	-1.4695	6.74	0.75	-0.750			
0.6646	42531.21	3.4480	3.4480	-1.4343	6.76	0.77	-0.750			
0.6689	42808.33	3.4450	3.4448	-1.4119	6.77	0.78	-0.750			
0.6730	43074.47	3.4420	3.4420	-1.3853	6.79	0.80	-0.750			
0.6771	43335.36	3.4390	3.4389	-1.3505	6.80	0.81	-0.750			
0.6812	43598.82	3.4360	3.4358	-1.3257	6.81	0.82	-0.750			
0.6851	43847.81	3.4330	3.4330	-1.2839	6.82	0.83	-0.750			
0.6889	44087.83	3.4300	3.4300	-1.2540	6.84	0.85	-0.750			
0.6927	44330.64	3.4270	3.4269	-1.2279	6.86	0.87	-0.750			
0.6963	44560.47	3.4240	3.4239	-1.1957	6.88	0.89	-0.750			
0.6997	44782.07	3.4210	3.4213	-1.1688	6.89	0.90	-0.750			
0.7033	45011.55	3.4180	3.4179	-1.1451	6.91	0.92	-0.750			
0.7067	45228.92	3.4150	3.4149	-1.1136	6.93	0.94	-0.750			
0.7100	45438.87	3.4120	3.4121	-1.0854	6.94	0.95	-0.750			
0.7132	45644.60	3.4090	3.4088	-1.0557	6.96	0.97	-0.750			
0.7163	45845.40	3.4060	3.4059	-1.0298	6.97	0.98	-0.750			
0.7194	46038.41	3.4030	3.4030	-0.9955	6.99	1.00	-0.750			
0.7223	46227.39	3.4000	3.4000	-0.9681	7.00	1.01	-0.750			
0.7252	46413.52	3.3970	3.3971	-0.9445	7.02	1.03	-0.750			
0.7280	46589.95	3.3940	3.3939	-0.9100	7.03	1.04	-0.750			
0.7306	46760.32	3.3910	3.3910	-0.8804	7.05	1.06	-0.750			
0.7332	46924.34	3.3880	3.3880	-0.8521	7.06	1.07	-0.750			
0.7358	47088.87	3.3850	3.3850	-0.8339	7.07	1.08	-0.750			
0.7382	47246.04	3.3820	3.3818	-0.8107	7.09	1.10	-0.750			
0.7406	47399.82	3.3790	3.3790	-0.7981	7.10	1.11	-0.750			
