Ah_balance (normalized)	Ah_balance (mAh)	Voltage - fit (V)	Voltage -  interpolate (V)	dQ/dV (1/V)	Temperature (°C)	Temperature - diff (°C)	Current (C)	R_DC 0ms (mOhm)	R_DC 50ms (mOhm)	R_DC 50 ms PEC (mOhm)
0.1779	11387.60	4.0810	4.0811	0.7727	7.55	1.58	0.750			
0.1802	11535.43	4.0780	4.0781	0.7708	7.55	1.58	0.750			
0.1826	11684.13	4.0750	4.0751	0.7739	7.55	1.58	0.750			
0.1849	11832.40	4.0720	4.0720	0.7762	7.54	1.57	0.750			
0.1872	11982.35	4.0690	4.0690	0.7798	7.54	1.57	0.750			
0.1895	12130.75	4.0660	4.0660	0.7785	7.53	1.56	0.750			
0.1919	12281.00	4.0630	4.0630	0.7829	7.53	1.56	0.750			
0.1943	12433.08	4.0600	4.0600	0.7887	7.53	1.56	0.750			
0.1966	12584.12	4.0570	4.0570	0.7884	7.52	1.55	0.750			
0.1990	12735.78	4.0540	4.0540	0.7937	7.52	1.55	0.750			
0.2014	12888.35	4.0510	4.0510	0.7957	7.52	1.55	0.750			
0.2038	13041.12	4.0480	4.0480	0.7985	7.51	1.54	0.750			
0.2062	13194.87	4.0450	4.0450	0.8009	7.51	1.54	0.750			
0.2086	13350.98	4.0420	4.0420	0.7972	7.50	1.53	0.750			
0.2110	13502.10	4.0390	4.0390	0.8007	7.50	1.53	0.750			
0.2134	13655.75	4.0360	4.0361	0.8031	7.50	1.53	0.750			
0.2158	13808.43	4.0330	4.0331	0.8102	7.49	1.52	0.750			
0.2182	13964.17	4.0300	4.0299	0.8156	7.49	1.52	0.750			
0.2207	14123.04	4.0270	4.0271	0.8156	7.48	1.51	0.750			
0.2231	14280.56	4.0240	4.0240	0.8225	7.48	1.51	0.750			
0.2256	14438.85	4.0210	4.0211	0.8290	7.48	1.51	0.750			
0.2281	14597.50	4.0180	4.0180	0.8316	7.47	1.50	0.750			
0.2306	14757.84	4.0150	4.0149	0.8347	7.47	1.50	0.750			
0.2331	14920.99	4.0120	4.0120	0.8267	7.46	1.49	0.750			
0.2356	15079.17	4.0090	4.0092	0.8383	7.46	1.49	0.750			
0.2381	15240.14	4.0060	4.0060	0.8418	7.46	1.49	0.750			
0.2406	15401.24	4.0030	4.0030	0.8427	7.45	1.48	0.750			
0.2432	15561.61	4.0000	4.0000	0.8436	7.45	1.48	0.750			
0.2457	15725.68	3.9970	3.9972	0.8437	7.44	1.47	0.750			
0.2483	15890.81	3.9940	3.9941	0.8501	7.44	1.47	0.750			
0.2508	16053.63	3.9910	3.9910	0.8529	7.44	1.47	0.750			
0.2533	16214.30	3.9880	3.9880	0.8490	7.43	1.46	0.750			
0.2559	16378.13	3.9850	3.9851	0.8562	7.43	1.46	0.750			
0.2585	16543.59	3.9820	3.9820	0.8609	7.42	1.45	0.750			
0.2611	16710.71	3.9790	3.9790	0.8656	7.42	1.45	0.750			
0.2637	16877.63	3.9760	3.9761	0.8714	7.42	1.45	0.750			
0.2663	17044.42	3.9730	3.9729	0.8749	7.41	1.44	0.750			
0.2689	17212.62	3.9700	3.9699	0.8788	7.41	1.44	0.750			
0.2716	17380.95	3.9670	3.9670	0.8827	7.40	1.43	0.750			
0.2742	17548.70	3.9640	3.9641	0.8979	7.39	1.42	0.750			
0.2769	17724.71	3.9610	3.9610	0.9045	7.38	1.41	0.750			
0.2797	17899.36	3.9580	3.9577	0.9101	7.37	1.40	0.750			
0.2825	18079.11	3.9550	3.9550	0.8986	7.37	1.40	0.750			
0.2852	18249.63	3.9520	3.9522	0.9011	7.36	1.39	0.750			
0.2879	18423.24	3.9490	3.9491	0.9006	7.36	1.39	0.750			
0.2905	18591.89	3.9460	3.9461	0.9011	7.35	1.38	0.750			
0.2932	18761.79	3.9430	3.9428	0.9017	7.35	1.38	0.750			
0.2959	18938.72	3.9400	3.9401	0.9173	7.34	1.37	0.750			
0.2987	19115.61	3.9370	3.9371	0.9320	7.33	1.36	0.750			
0.3015	19298.48	3.9340	3.9340	0.9467	7.32	1.35	0.750			
0.3044	19480.67	3.9310	3.9309	0.9449	7.31	1.34	0.750			
0.3073	19665.86	3.9280	3.9280	0.9473	7.30	1.33	0.750			
0.3101	19846.79	3.9250	3.9251	0.9545	7.29	1.32	0.750			
0.3130	20029.83	3.9220	3.9221	0.9696	7.28	1.31	0.750			
0.3158	20213.96	3.9190	3.9190	0.9799	7.27	1.30	0.750			
0.3188	20405.03	3.9160	3.9160	0.9854	7.27	1.30	0.750			
0.3218	20595.63	3.9130	3.9130	1.0034	7.26	1.29	0.750			
0.3249	20792.46	3.9100	3.9101	1.0066	7.25	1.28	0.750			
0.3280	20989.40	3.9070	3.9069	1.0126	7.24	1.27	0.750			
0.3309	21180.75	3.9040	3.9040	1.0164	7.23	1.26	0.750			
0.3340	21374.98	3.9010	3.9009	1.0229	7.22	1.25	0.750			
0.3370	21570.34	3.8980	3.8979	1.0326	7.21	1.24	0.750			
0.3402	21772.18	3.8950	3.8951	1.0468	7.20	1.23	0.750			
0.3433	21973.95	3.8920	3.8920	1.0507	7.19	1.22	0.750			
0.3465	22177.96	3.8890	3.8890	1.0684	7.18	1.21	0.750			
0.3497	22382.23	3.8860	3.8861	1.0784	7.17	1.20	0.750			
0.3530	22589.07	3.8830	3.8829	1.0944	7.16	1.19	0.750			
0.3563	22803.02	3.8800	3.8800	1.1000	7.15	1.18	0.750			
0.3596	23014.66	3.8770	3.8771	1.1192	7.13	1.16	0.750			
0.3630	23230.86	3.8740	3.8741	1.1384	7.12	1.15	0.750			
0.3664	23452.78	3.8710	3.8709	1.1528	7.11	1.14	0.750			
0.3699	23674.48	3.8680	3.8680	1.1594	7.10	1.13	0.750			
0.3734	23897.98	3.8650	3.8651	1.1740	7.09	1.12	0.750			
0.3769	24124.47	3.8620	3.8620	1.1905	7.08	1.11	0.750			
0.3805	24353.90	3.8590	3.8590	1.1967	7.07	1.10	0.750			
0.3841	24583.78	3.8560	3.8560	1.2263	7.06	1.09	0.750			
0.3878	24820.43	3.8530	3.8530	1.2459	7.04	1.07	0.750			
0.3917	25066.01	3.8500	3.8498	1.2593	7.03	1.06	0.750			
0.3955	25310.20	3.8470	3.8471	1.2807	7.02	1.05	0.750			
0.3993	25554.53	3.8440	3.8442	1.2945	7.01	1.04	0.750			
0.4032	25801.71	3.8410	3.8410	1.3242	7.00	1.03	0.750			
0.4071	26056.89	3.8380	3.8381	1.3691	6.98	1.01	0.750			
0.4112	26317.98	3.8350	3.8349	1.3957	6.96	0.99	0.750	0.384	0.896	
0.4156	26595.23	3.8320	3.8323	1.4345	6.95	0.98	0.750			
0.4199	26874.86	3.8290	3.8292	1.5068	6.93	0.96	0.750			
0.4245	27171.12	3.8260	3.8260	1.5647	6.91	0.94	0.750			
0.4293	27473.29	3.8230	3.8225	1.5706	6.89	0.92	0.750			
0.4341	27784.75	3.8200	3.8202	1.6065	6.87	0.90	0.750			
0.4391	28104.63	3.8170	3.8172	1.6338	6.85	0.88	0.750			
0.4440	28417.73	3.8140	3.8139	1.6424	6.82	0.85	0.750			
0.4488	28724.06	3.8110	3.8109	1.6340	6.81	0.84	0.750			
0.4537	29038.27	3.8080	3.8080	1.6581	6.79	0.82	0.750			
0.4588	29363.89	3.8050	3.8052	1.6822	6.78	0.81	0.750			
0.4639	29686.83	3.8020	3.8021	1.7161	6.76	0.79	0.750			
0.4691	30022.19	3.7990	3.7989	1.7429	6.74	0.77	0.750			
0.4744	30361.45	3.7960	3.7958	1.7885	6.72	0.75	0.750			
0.4799	30712.93	3.7930	3.7928	1.8100	6.69	0.72	0.750			
0.4854	31062.59	3.7900	3.7901	1.8338	6.66	0.69	0.750			
0.4910	31421.27	3.7870	3.7870	1.8795	6.64	0.67	0.750			
0.4965	31776.78	3.7840	3.7840	1.8853	6.61	0.64	0.750			
0.5023	32144.12	3.7810	3.7809	1.9173	6.58	0.61	0.750			
0.5081	32521.32	3.7780	3.7778	1.9788	6.56	0.59	0.750			
0.5141	32899.85	3.7750	3.7752	1.9824	6.54	0.57	0.750			
0.5202	33291.83	3.7720	3.7719	2.0051	6.52	0.55	0.750			
0.5262	33674.47	3.7690	3.7689	2.0387	6.49	0.52	0.750			
0.5324	34075.26	3.7660	3.7660	2.0745	6.46	0.49	0.750			
0.5387	34476.60	3.7630	3.7630	2.0755	6.43	0.46	0.750			
0.5450	34878.98	3.7600	3.7601	2.1089	6.40	0.43	0.750			
0.5514	35290.05	3.7570	3.7572	2.1167	6.37	0.40	0.750			
0.5576	35687.87	3.7540	3.7539	2.1231	6.35	0.38	0.750			
0.5640	36099.19	3.7510	3.7507	2.2068	6.32	0.35	0.750			
0.5708	36533.58	3.7480	3.7481	2.2872	6.30	0.33	0.750			
0.5777	36973.08	3.7450	3.7451	2.2897	6.28	0.31	0.750			
0.5848	37428.59	3.7420	3.7420	2.3189	6.25	0.28	0.750			
0.5917	37868.07	3.7390	3.7389	2.3595	6.21	0.24	0.750			
0.5988	38325.41	3.7360	3.7357	2.4763	6.18	0.21	0.750			
0.6065	38815.25	3.7330	3.7330	2.7182	6.16	0.19	0.750			
0.6145	39327.82	3.7300	3.7300	2.6305	6.14	0.17	0.750			
0.6223	39826.11	3.7270	3.7270	2.6056	6.11	0.14	0.750			
0.6301	40327.67	3.7240	3.7240	2.5823	6.09	0.12	0.750			
0.6377	40815.25	3.7210	3.7210	2.4944	6.07	0.10	0.750			
0.6452	41295.43	3.7180	3.7179	2.4172	6.05	0.08	0.750			
0.6525	41759.22	3.7150	3.7149	2.3177	6.04	0.07	0.750			
0.6593	42195.57	3.7120	3.7120	2.1519	6.02	0.05	0.750			
0.6656	42598.74	3.7090	3.7092	1.9481	6.00	0.03	0.750			
0.6709	42938.68	3.7060	3.7060	1.7196	6.00	0.03	0.750			
0.6757	43244.08	3.7030	3.7033	1.5156	5.99	0.02	0.750			
0.6799	43512.56	3.7000	3.7002	1.3493	5.99	0.02	0.750			
0.6836	43747.44	3.6970	3.6971	1.2004	5.98	0.01	0.750			
0.6869	43963.48	3.6940	3.6939	1.0957	5.98	0.01	0.750			
0.6899	44152.01	3.6910	3.6910	1.0110	5.97	0.00	0.750			
0.6927	44333.77	3.6880	3.6879	0.9461	5.97	-0.00	0.750			
0.6955	44511.06	3.6850	3.6850	0.9025	5.96	-0.01	0.750			
0.6981	44680.34	3.6820	3.6820	0.8700	5.96	-0.01	0.750			
0.7007	44844.10	3.6790	3.6791	0.8390	5.96	-0.01	0.750			
0.7032	45002.43	3.6760	3.6761	0.8041	5.95	-0.02	0.750			
0.7055	45153.85	3.6730	3.6729	0.7702	5.95	-0.02	0.750			
0.7078	45299.08	3.6700	3.6701	0.7346	5.95	-0.02	0.750			
0.7100	45437.22	3.6670	3.6671	0.6986	5.96	-0.01	0.750			
0.7120	45568.37	3.6640	3.6639	0.6580	5.96	-0.01	0.750			
0.7139	45691.01	3.6610	3.6610	0.6154	5.96	-0.01	0.750			
0.7157	45804.42	3.6580	3.6580	0.5747	5.97	-0.00	0.750			
0.7174	45910.94	3.6550	3.6547	0.5356	5.97	0.00	0.750			
0.7189	46010.13	3.6520	3.6520	0.4969	5.97	0.00	0.750			
0.7203	46101.68	3.6490	3.6490	0.4579	5.97	0.00	0.750			
0.7217	46185.97	3.6460	3.6459	0.4215	5.98	0.01	0.750			
0.7229	46262.77	3.6430	3.6430	0.3817	5.98	0.01	0.750			
0.7240	46333.11	3.6400	3.6400	0.3485	5.98	0.01	0.750			
0.7249	46396.31	3.6370	3.6370	0.3126	5.98	0.01	0.750			
0.7258	46453.11	3.6340	3.6340	0.2776	5.98	0.01	0.750			
0.7266	46503.73	3.6310	3.6309	0.2404	5.98	0.01	0.750			
0.7273	46546.62	3.6280	3.6279	0.2036	5.99	0.02	0.750			
0.7278	46582.35	3.6250	3.6253	0.1656	5.99	0.02	0.750			
0.7283	46611.22	3.6220	3.6222	0.1277	5.99	0.02	0.750			
0.7286	46633.08	3.6190	3.6192	0.0873	5.99	0.02	0.750			
0.7288	46645.26	3.6160	3.6165	0.0462	5.99	0.02	0.750			
0.7289	46650.23	3.6130	3.6147	0.0055	5.99	0.02	0.750			
