Ah_balance (normalized)	Ah_balance (mAh)	Voltage - fit (V)	Voltage -  interpolate (V)	dQ/dV (1/V)	Temperature (°C)	Temperature - diff (°C)	Current (C)	R_DC 0ms (mOhm)	R_DC 50ms (mOhm)	R_DC 50 ms PEC (mOhm)
0.1790	11457.51	4.0800	4.0800	0.7632	7.70	1.71	0.750			
0.1813	11605.69	4.0770	4.0769	0.7709	7.69	1.70	0.750			
0.1836	11753.17	4.0740	4.0741	0.7717	7.69	1.70	0.750			
0.1860	11901.94	4.0710	4.0710	0.7726	7.68	1.69	0.750			
0.1883	12049.99	4.0680	4.0680	0.7726	7.68	1.69	0.750			
0.1906	12199.47	4.0650	4.0648	0.7763	7.67	1.68	0.750			
0.1929	12347.09	4.0620	4.0621	0.7779	7.66	1.67	0.750			
0.1953	12498.13	4.0590	4.0589	0.7766	7.66	1.67	0.750			
0.1976	12646.54	4.0560	4.0561	0.7859	7.65	1.66	0.750			
0.1999	12796.77	4.0530	4.0530	0.7937	7.64	1.65	0.750			
0.2023	12950.09	4.0500	4.0500	0.7996	7.63	1.64	0.750			
0.2048	13104.48	4.0470	4.0470	0.8045	7.63	1.64	0.750			
0.2072	13262.89	4.0440	4.0440	0.7993	7.62	1.63	0.750			
0.2096	13414.38	4.0410	4.0411	0.8027	7.61	1.62	0.750			
0.2120	13568.50	4.0380	4.0381	0.8090	7.60	1.61	0.750			
0.2144	13720.04	4.0350	4.0350	0.8119	7.60	1.61	0.750			
0.2168	13875.92	4.0320	4.0319	0.8139	7.59	1.60	0.750			
0.2193	14035.80	4.0290	4.0291	0.8146	7.58	1.59	0.750			
0.2218	14194.71	4.0260	4.0260	0.8213	7.57	1.58	0.750			
0.2243	14353.25	4.0230	4.0232	0.8242	7.56	1.57	0.750			
0.2267	14509.37	4.0200	4.0200	0.8217	7.56	1.57	0.750			
0.2292	14666.32	4.0170	4.0170	0.8216	7.55	1.56	0.750			
0.2317	14825.65	4.0140	4.0140	0.8239	7.53	1.54	0.750			
0.2341	14985.22	4.0110	4.0112	0.8324	7.52	1.53	0.750			
0.2366	15144.91	4.0080	4.0079	0.8327	7.51	1.52	0.750			
0.2391	15303.47	4.0050	4.0050	0.8384	7.50	1.51	0.750			
0.2416	15463.43	4.0020	4.0020	0.8443	7.49	1.50	0.750			
0.2442	15627.05	3.9990	3.9990	0.8505	7.48	1.49	0.750			
0.2468	15793.06	3.9960	3.9961	0.8506	7.47	1.48	0.750			
0.2493	15953.81	3.9930	3.9931	0.8607	7.46	1.47	0.750			
0.2519	16119.32	3.9900	3.9900	0.8656	7.46	1.47	0.750			
0.2545	16286.98	3.9870	3.9871	0.8654	7.45	1.46	0.750			
0.2571	16452.99	3.9840	3.9840	0.8660	7.44	1.45	0.750			
0.2597	16620.56	3.9810	3.9813	0.8743	7.43	1.44	0.750			
0.2623	16789.83	3.9780	3.9779	0.8825	7.42	1.43	0.750			
0.2650	16958.04	3.9750	3.9749	0.8825	7.41	1.42	0.750			
0.2676	17128.06	3.9720	3.9720	0.8817	7.40	1.41	0.750			
0.2703	17299.72	3.9690	3.9691	0.8856	7.39	1.40	0.750			
0.2730	17469.62	3.9660	3.9661	0.8922	7.38	1.39	0.750			
0.2756	17640.81	3.9630	3.9630	0.8919	7.37	1.38	0.750			
0.2783	17810.58	3.9600	3.9599	0.8939	7.36	1.37	0.750			
0.2810	17981.27	3.9570	3.9570	0.8980	7.35	1.36	0.750			
0.2837	18155.64	3.9540	3.9540	0.9066	7.34	1.35	0.750			
0.2864	18332.09	3.9510	3.9510	0.9194	7.32	1.33	0.750			
0.2892	18509.08	3.9480	3.9481	0.9200	7.31	1.32	0.750			
0.2920	18685.26	3.9450	3.9450	0.9224	7.30	1.31	0.750			
0.2948	18864.44	3.9420	3.9419	0.9242	7.28	1.29	0.750			
0.2975	19038.46	3.9390	3.9391	0.9309	7.27	1.28	0.750			
0.3003	19216.34	3.9360	3.9360	0.9432	7.26	1.27	0.750			
0.3031	19398.19	3.9330	3.9326	0.9530	7.25	1.26	0.750			
0.3060	19584.35	3.9300	3.9300	0.9549	7.24	1.25	0.750			
0.3089	19768.95	3.9270	3.9271	0.9670	7.23	1.24	0.750			
0.3118	19956.68	3.9240	3.9241	0.9772	7.22	1.23	0.750			
0.3147	20141.90	3.9210	3.9210	0.9755	7.21	1.22	0.750			
0.3177	20332.52	3.9180	3.9179	0.9830	7.20	1.21	0.750			
0.3206	20520.00	3.9150	3.9151	0.9910	7.19	1.20	0.750			
0.3236	20711.36	3.9120	3.9121	1.0074	7.18	1.19	0.750			
0.3267	20908.49	3.9090	3.9091	1.0166	7.17	1.18	0.750			
0.3298	21106.94	3.9060	3.9059	1.0095	7.15	1.16	0.750			
0.3328	21299.60	3.9030	3.9031	1.0232	7.14	1.15	0.750			
0.3359	21494.51	3.9000	3.9002	1.0401	7.13	1.14	0.750			
0.3390	21695.34	3.8970	3.8971	1.0582	7.12	1.13	0.750			
0.3422	21897.77	3.8940	3.8940	1.0718	7.10	1.11	0.750			
0.3454	22106.37	3.8910	3.8911	1.0880	7.09	1.10	0.750			
0.3488	22322.51	3.8880	3.8879	1.1006	7.07	1.08	0.750			
0.3521	22536.75	3.8850	3.8850	1.1059	7.06	1.07	0.750			
0.3554	22747.93	3.8820	3.8820	1.0957	7.04	1.05	0.750			
0.3587	22955.05	3.8790	3.8791	1.1039	7.03	1.04	0.750			
0.3620	23166.71	3.8760	3.8760	1.1211	7.01	1.02	0.750			
0.3653	23381.98	3.8730	3.8728	1.1281	6.99	1.00	0.750			
0.3687	23598.29	3.8700	3.8700	1.1551	6.98	0.99	0.750			
0.3722	23823.86	3.8670	3.8671	1.1820	6.97	0.98	0.750			
0.3758	24053.05	3.8640	3.8641	1.2143	6.96	0.97	0.750			
0.3795	24288.71	3.8610	3.8608	1.2366	6.95	0.96	0.750			
0.3833	24530.35	3.8580	3.8581	1.2628	6.93	0.94	0.750			
0.3871	24775.31	3.8550	3.8551	1.2855	6.91	0.92	0.750			
0.3911	25028.53	3.8520	3.8520	1.2987	6.89	0.90	0.750			
0.3948	25269.51	3.8490	3.8491	1.2993	6.87	0.88	0.750			
0.3986	25513.46	3.8460	3.8462	1.3254	6.85	0.86	0.750			
0.4027	25771.66	3.8430	3.8429	1.3391	6.83	0.84	0.750			
0.4068	26032.52	3.8400	3.8400	1.3936	6.81	0.82	0.750	0.390	0.904	
0.4110	26304.28	3.8370	3.8373	1.4310	6.79	0.80	0.750			
0.4155	26589.62	3.8340	3.8337	1.4630	6.77	0.78	0.750			
0.4200	26879.81	3.8310	3.8311	1.4833	6.75	0.76	0.750			
0.4242	27150.99	3.8280	3.8281	1.4693	6.73	0.74	0.750			
0.4287	27439.28	3.8250	3.8248	1.4727	6.71	0.72	0.750			
0.4332	27722.13	3.8220	3.8218	1.4820	6.69	0.70	0.750			
0.4376	28007.41	3.8190	3.8192	1.5154	6.67	0.68	0.750			
0.4422	28299.20	3.8160	3.8159	1.5517	6.64	0.65	0.750			
0.4468	28597.57	3.8130	3.8129	1.5941	6.62	0.63	0.750			
0.4516	28903.52	3.8100	3.8102	1.6292	6.60	0.61	0.750			
0.4567	29226.89	3.8070	3.8071	1.6532	6.58	0.59	0.750			
0.4618	29552.03	3.8040	3.8041	1.6951	6.56	0.57	0.750			
0.4668	29876.57	3.8010	3.8007	1.6942	6.54	0.55	0.750			
0.4719	30200.72	3.7980	3.7981	1.7419	6.51	0.52	0.750			
0.4773	30545.90	3.7950	3.7950	1.7507	6.49	0.50	0.750			
0.4827	30891.55	3.7920	3.7922	1.7935	6.47	0.48	0.750			
0.4881	31235.57	3.7890	3.7892	1.8472	6.46	0.47	0.750			
0.4938	31601.72	3.7860	3.7857	1.8630	6.44	0.45	0.750			
0.4994	31962.55	3.7830	3.7832	1.8729	6.41	0.42	0.750			
0.5050	32317.55	3.7800	3.7802	1.8848	6.39	0.40	0.750			
0.5107	32686.27	3.7770	3.7767	1.8760	6.38	0.39	0.750			
0.5159	33017.43	3.7740	3.7739	1.9491	6.37	0.38	0.750			
0.5219	33400.13	3.7710	3.7708	2.1101	6.35	0.36	0.750			
0.5281	33799.87	3.7680	3.7675	2.1899	6.33	0.34	0.750			
0.5349	34236.16	3.7650	3.7660	2.2746	6.30	0.31	0.750			
0.5421	34696.94	3.7620	3.7622	2.1941	6.28	0.29	0.750			
0.5488	35123.70	3.7590	3.7589	2.1723	6.25	0.26	0.750			
0.5546	35496.58	3.7560	3.7559	2.0480	6.23	0.24	0.750			
0.5608	35888.62	3.7530	3.7531	2.0815	6.21	0.22	0.750			
0.5669	36284.27	3.7500	3.7500	2.1400	6.19	0.20	0.750			
0.5735	36702.74	3.7470	3.7470	2.2059	6.17	0.18	0.750			
0.5804	37142.98	3.7440	3.7440	2.2827	6.14	0.15	0.750			
0.5873	37584.36	3.7410	3.7410	2.3176	6.12	0.13	0.750			
0.5943	38032.72	3.7380	3.7378	2.3801	6.10	0.11	0.750			
0.6015	38493.32	3.7350	3.7349	2.4283	6.08	0.09	0.750			
0.6090	38976.57	3.7320	3.7320	2.4733	6.05	0.06	0.750			
0.6164	39447.60	3.7290	3.7291	2.4311	6.03	0.04	0.750			
0.6235	39902.00	3.7260	3.7260	2.4281	6.02	0.03	0.750			
0.6308	40374.27	3.7230	3.7229	2.3296	6.01	0.02	0.750			
0.6379	40824.95	3.7200	3.7202	2.2275	5.99	0.00	0.750			
0.6443	41237.02	3.7170	3.7168	2.0531	5.98	-0.01	0.750			
0.6502	41614.70	3.7140	3.7137	1.8398	5.98	-0.01	0.750			
0.6555	41952.45	3.7110	3.7111	1.7261	5.97	-0.02	0.750			
0.6603	42259.06	3.7080	3.7080	1.5256	5.96	-0.03	0.750			
0.6643	42515.63	3.7050	3.7050	1.3462	5.96	-0.03	0.750			
0.6681	42756.14	3.7020	3.7020	1.2119	5.96	-0.03	0.750			
0.6714	42969.49	3.6990	3.6991	1.1185	5.96	-0.03	0.750			
0.6746	43174.50	3.6960	3.6960	1.0468	5.95	-0.04	0.750			
0.6776	43366.34	3.6930	3.6928	0.9950	5.95	-0.04	0.750			
0.6804	43547.98	3.6900	3.6901	0.9404	5.95	-0.04	0.750			
0.6832	43723.28	3.6870	3.6870	0.9016	5.95	-0.04	0.750			
0.6858	43892.28	3.6840	3.6840	0.8712	5.95	-0.04	0.750			
0.6884	44056.19	3.6810	3.6810	0.8397	5.95	-0.04	0.750			
0.6908	44213.02	3.6780	3.6778	0.8055	5.95	-0.04	0.750			
0.6932	44365.67	3.6750	3.6750	0.7785	5.95	-0.04	0.750			
0.6955	44512.54	3.6720	3.6721	0.7458	5.96	-0.03	0.750			
0.6977	44654.85	3.6690	3.6690	0.7171	5.96	-0.03	0.750			
0.6998	44788.83	3.6660	3.6659	0.6781	5.96	-0.03	0.750			
0.7018	44915.09	3.6630	3.6631	0.6455	5.97	-0.02	0.750			
0.7037	45035.92	3.6600	3.6600	0.6109	5.97	-0.02	0.750			
0.7055	45150.17	3.6570	3.6570	0.5767	5.97	-0.02	0.750			
0.7071	45257.59	3.6540	3.6539	0.5398	5.98	-0.01	0.750			
0.7087	45357.89	3.6510	3.6512	0.5070	5.98	-0.01	0.750			
0.7102	45451.96	3.6480	3.6481	0.4736	5.98	-0.01	0.750			
0.7116	45540.20	3.6450	3.6448	0.4400	5.98	-0.01	0.750			
0.7128	45620.58	3.6420	3.6419	0.4036	5.99	-0.00	0.750			
0.7140	45694.09	3.6390	3.6391	0.3720	5.99	-0.00	0.750			
0.7150	45762.01	3.6360	3.6361	0.3395	5.99	-0.00	0.750			
0.7160	45825.27	3.6330	3.6327	0.3077	5.99	0.00	0.750			
0.7169	45882.45	3.6300	3.6300	0.2696	5.99	0.00	0.750			
0.7177	45931.39	3.6270	3.6270	0.2340	5.99	0.00	0.750			
0.7184	45974.92	3.6240	3.6240	0.1989	5.99	0.00	0.750			
0.7189	46009.49	3.6210	3.6210	0.1558	5.99	0.00	0.750			
0.7193	46035.61	3.6180	3.6182	0.1129	6.00	0.01	0.750			
0.7196	46053.11	3.6150	3.6157	0.0693	6.00	0.01	0.750			
0.7197	46062.28	3.6120	3.6136	0.0242	6.00	0.01	0.750			
