Ah_balance (normalized)	Ah_balance (mAh)	Voltage - fit (V)	Voltage -  interpolate (V)	dQ/dV (1/V)	Temperature (°C)	Temperature - diff (°C)	Current (C)	R_DC 0ms (mOhm)	R_DC 50ms (mOhm)	R_DC 50 ms PEC (mOhm)
0.0940	6016.06	4.0090	4.0086	-0.0731	5.98	0.01	-0.750			
0.0943	6033.42	4.0060	4.0056	-0.1046	5.98	0.01	-0.750			
0.0946	6056.73	4.0030	4.0028	-0.1326	5.98	0.01	-0.750			
0.0951	6084.88	4.0000	4.0000	-0.1588	5.98	0.01	-0.750			
0.0956	6117.86	3.9970	3.9970	-0.1847	5.98	0.01	-0.750			
0.0962	6156.03	3.9940	3.9940	-0.2075	5.98	0.01	-0.750			
0.0969	6198.86	3.9910	3.9910	-0.2330	5.98	0.01	-0.750			
0.0976	6245.28	3.9880	3.9882	-0.2572	5.98	0.01	-0.750			
0.0984	6296.97	3.9850	3.9850	-0.2827	5.98	0.01	-0.750			
0.0993	6353.26	3.9820	3.9820	-0.3082	5.98	0.01	-0.750			
0.1002	6415.28	3.9790	3.9790	-0.3325	5.97	0.00	-0.750			
0.1013	6481.75	3.9760	3.9760	-0.3577	5.97	0.00	-0.750			
0.1024	6553.18	3.9730	3.9730	-0.3831	5.97	0.00	-0.750			
0.1036	6628.90	3.9700	3.9701	-0.4054	5.97	-0.00	-0.750			
0.1048	6707.88	3.9670	3.9670	-0.4305	5.97	-0.00	-0.750			
0.1061	6793.23	3.9640	3.9640	-0.4555	5.97	-0.00	-0.750			
0.1076	6883.95	3.9610	3.9610	-0.4788	5.96	-0.01	-0.750			
0.1090	6978.62	3.9580	3.9580	-0.5027	5.96	-0.01	-0.750			
0.1106	7077.89	3.9550	3.9551	-0.5300	5.96	-0.01	-0.750			
0.1122	7182.66	3.9520	3.9520	-0.5515	5.96	-0.01	-0.750			
0.1139	7291.23	3.9490	3.9488	-0.5717	5.95	-0.02	-0.750			
0.1157	7402.78	3.9460	3.9464	-0.5875	5.95	-0.02	-0.750			
0.1175	7517.92	3.9430	3.9430	-0.6060	5.95	-0.02	-0.750			
0.1193	7634.89	3.9400	3.9401	-0.6224	5.95	-0.02	-0.750			
0.1212	7754.49	3.9370	3.9370	-0.6391	5.95	-0.02	-0.750			
0.1231	7880.65	3.9340	3.9340	-0.6568	5.95	-0.02	-0.750			
0.1252	8011.49	3.9310	3.9309	-0.6572	5.95	-0.02	-0.750			
0.1272	8140.82	3.9280	3.9280	-0.6576	5.95	-0.02	-0.750			
0.1292	8265.97	3.9250	3.9251	-0.6572	5.95	-0.02	-0.750			
0.1311	8388.30	3.9220	3.9222	-0.6637	5.95	-0.02	-0.750			
0.1330	8513.48	3.9190	3.9188	-0.6754	5.94	-0.03	-0.750			
0.1350	8641.64	3.9160	3.9159	-0.6881	5.94	-0.03	-0.750			
0.1371	8777.39	3.9130	3.9131	-0.7099	5.94	-0.03	-0.750			
0.1394	8921.83	3.9100	3.9100	-0.7330	5.93	-0.04	-0.750			
0.1416	9063.48	3.9070	3.9070	-0.7374	5.93	-0.04	-0.750			
0.1438	9204.55	3.9040	3.9040	-0.7413	5.94	-0.03	-0.750			
0.1461	9347.75	3.9010	3.9010	-0.7440	5.94	-0.03	-0.750			
0.1483	9490.54	3.8980	3.8979	-0.7464	5.95	-0.02	-0.750			
0.1505	9634.76	3.8950	3.8949	-0.7510	5.95	-0.02	-0.750			
0.1528	9778.87	3.8920	3.8921	-0.7582	5.96	-0.01	-0.750			
0.1551	9924.77	3.8890	3.8889	-0.7626	5.96	-0.01	-0.750			
0.1574	10072.14	3.8860	3.8861	-0.7680	5.96	-0.01	-0.750			
0.1597	10220.21	3.8830	3.8830	-0.7718	5.97	-0.00	-0.750			
0.1620	10368.33	3.8800	3.8800	-0.7737	5.97	-0.00	-0.750			
0.1643	10518.37	3.8770	3.8770	-0.7775	5.97	-0.00	-0.750			
0.1667	10667.36	3.8740	3.8740	-0.7799	5.97	0.00	-0.750			
0.1690	10817.43	3.8710	3.8710	-0.7768	5.98	0.01	-0.750			
0.1714	10966.55	3.8680	3.8680	-0.7817	5.98	0.01	-0.750			
0.1737	11116.54	3.8650	3.8651	-0.7815	5.98	0.01	-0.750			
0.1760	11267.01	3.8620	3.8619	-0.7827	5.99	0.02	-0.750			
0.1784	11417.27	3.8590	3.8590	-0.7846	5.99	0.02	-0.750			
0.1807	11567.61	3.8560	3.8560	-0.7874	5.99	0.02	-0.750			
0.1831	11718.37	3.8530	3.8531	-0.7953	6.00	0.03	-0.750			
0.1855	11873.50	3.8500	3.8500	-0.7994	6.00	0.03	-0.750			
0.1879	12027.30	3.8470	3.8469	-0.7953	6.01	0.04	-0.750			
0.1903	12181.16	3.8440	3.8442	-0.7978	6.01	0.04	-0.750			
0.1927	12333.54	3.8410	3.8410	-0.7968	6.01	0.04	-0.750			
0.1951	12485.29	3.8380	3.8380	-0.8012	6.02	0.05	-0.750			
0.1975	12637.77	3.8350	3.8349	-0.8001	6.02	0.05	-0.750			
0.1999	12792.09	3.8320	3.8318	-0.8015	6.02	0.05	-0.750			
0.2023	12948.92	3.8290	3.8291	-0.8090	6.03	0.06	-0.750			
0.2048	13104.53	3.8260	3.8259	-0.8099	6.04	0.07	-0.750			
0.2072	13259.21	3.8230	3.8230	-0.8123	6.04	0.07	-0.750			
0.2096	13416.19	3.8200	3.8200	-0.8106	6.05	0.08	-0.750			
0.2120	13568.90	3.8170	3.8170	-0.8080	6.06	0.09	-0.750			
0.2145	13727.53	3.8140	3.8140	-0.8109	6.07	0.10	-0.750			
0.2169	13883.12	3.8110	3.8110	-0.8092	6.07	0.10	-0.750			
0.2193	14036.47	3.8080	3.8080	-0.8127	6.08	0.11	-0.750			
0.2218	14193.99	3.8050	3.8049	-0.8103	6.08	0.11	-0.750			
0.2242	14347.96	3.8020	3.8020	-0.8109	6.08	0.11	-0.750			
0.2266	14505.24	3.7990	3.7990	-0.8152	6.09	0.12	-0.750			
0.2291	14662.05	3.7960	3.7961	-0.8151	6.09	0.12	-0.750			
0.2315	14818.13	3.7930	3.7929	-0.8207	6.10	0.13	-0.750			
0.2340	14975.54	3.7900	3.7900	-0.8172	6.11	0.14	-0.750			
0.2364	15131.96	3.7870	3.7870	-0.8154	6.12	0.15	-0.750			
0.2389	15290.75	3.7840	3.7839	-0.8189	6.12	0.15	-0.750			
0.2414	15447.43	3.7810	3.7811	-0.8149	6.13	0.16	-0.750			
0.2438	15603.59	3.7780	3.7780	-0.8170	6.14	0.17	-0.750			
0.2463	15760.23	3.7750	3.7750	-0.8137	6.15	0.18	-0.750			
0.2487	15914.89	3.7720	3.7720	-0.8109	6.16	0.19	-0.750			
0.2511	16072.73	3.7690	3.7690	-0.8185	6.16	0.19	-0.750			
0.2536	16230.08	3.7660	3.7660	-0.8171	6.17	0.20	-0.750			
0.2560	16386.51	3.7630	3.7630	-0.8184	6.18	0.21	-0.750			
0.2585	16543.66	3.7600	3.7600	-0.8252	6.19	0.22	-0.750			
0.2610	16703.73	3.7570	3.7570	-0.8233	6.20	0.23	-0.750			
0.2635	16863.61	3.7540	3.7538	-0.8231	6.20	0.23	-0.750			
0.2659	17020.07	3.7510	3.7513	-0.8182	6.21	0.24	-0.750			
0.2684	17176.99	3.7480	3.7480	-0.8160	6.21	0.24	-0.750			
0.2708	17332.94	3.7450	3.7449	-0.8221	6.22	0.25	-0.750			
0.2733	17488.87	3.7420	3.7418	-0.8197	6.22	0.25	-0.750			
0.2758	17648.18	3.7390	3.7390	-0.8295	6.23	0.26	-0.750			
0.2782	17807.95	3.7360	3.7363	-0.8333	6.23	0.26	-0.750			
0.2808	17969.88	3.7330	3.7330	-0.8378	6.24	0.27	-0.750			
0.2833	18130.81	3.7300	3.7299	-0.8418	6.25	0.28	-0.750			
0.2858	18291.65	3.7270	3.7269	-0.8401	6.25	0.28	-0.750			
0.2883	18453.92	3.7240	3.7240	-0.8451	6.26	0.29	-0.750			
0.2909	18616.51	3.7210	3.7211	-0.8446	6.27	0.30	-0.750			
0.2934	18777.99	3.7180	3.7180	-0.8475	6.27	0.30	-0.750			
0.2959	18940.54	3.7150	3.7150	-0.8560	6.28	0.31	-0.750			
0.2985	19104.69	3.7120	3.7120	-0.8591	6.28	0.31	-0.750			
0.3011	19270.84	3.7090	3.7089	-0.8660	6.29	0.32	-0.750			
0.3037	19437.65	3.7060	3.7061	-0.8713	6.29	0.32	-0.750			
0.3063	19605.05	3.7030	3.7029	-0.8788	6.30	0.33	-0.750			
0.3090	19774.44	3.7000	3.7000	-0.8846	6.30	0.33	-0.750			
0.3116	19942.60	3.6970	3.6969	-0.8899	6.30	0.33	-0.750			
0.3143	20115.37	3.6940	3.6941	-0.9007	6.31	0.34	-0.750			
0.3170	20289.94	3.6910	3.6910	-0.9084	6.31	0.34	-0.750			
0.3198	20464.89	3.6880	3.6880	-0.9230	6.32	0.35	-0.750			
0.3226	20643.53	3.6850	3.6849	-0.9294	6.33	0.36	-0.750			
0.3253	20822.00	3.6820	3.6820	-0.9350	6.34	0.37	-0.750			
0.3282	21002.70	3.6790	3.6792	-0.9462	6.35	0.38	-0.750			
0.3310	21184.72	3.6760	3.6759	-0.9594	6.35	0.38	-0.750			
0.3339	21370.74	3.6730	3.6730	-0.9705	6.36	0.39	-0.750			
0.3368	21557.10	3.6700	3.6699	-0.9796	6.36	0.39	-0.750			
0.3398	21747.18	3.6670	3.6670	-0.9926	6.37	0.40	-0.750			
0.3428	21939.54	3.6640	3.6639	-1.0062	6.37	0.40	-0.750			
0.3458	22132.68	3.6610	3.6610	-1.0167	6.38	0.41	-0.750			
0.3489	22327.98	3.6580	3.6580	-1.0259	6.38	0.41	-0.750			
0.3519	22524.51	3.6550	3.6550	-1.0343	6.39	0.42	-0.750			
0.3551	22726.39	3.6520	3.6519	-1.0572	6.39	0.42	-0.750			
0.3583	22931.29	3.6490	3.6490	-1.0695	6.39	0.42	-0.750			
0.3615	23138.16	3.6460	3.6459	-1.0811	6.40	0.43	-0.750			
0.3648	23346.22	3.6430	3.6431	-1.0921	6.40	0.43	-0.750			
0.3681	23558.11	3.6400	3.6400	-1.1087	6.40	0.43	-0.750			
0.3715	23772.95	3.6370	3.6369	-1.1225	6.40	0.43	-0.750			
0.3748	23989.88	3.6340	3.6340	-1.1314	6.41	0.44	-0.750			
0.3782	24205.55	3.6310	3.6312	-1.1488	6.41	0.44	-0.750			
0.3817	24431.54	3.6280	3.6280	-1.1654	6.42	0.45	-0.750			
0.3853	24656.09	3.6250	3.6249	-1.1777	6.43	0.46	-0.750			
0.3888	24881.36	3.6220	3.6220	-1.1922	6.44	0.47	-0.750			
0.3924	25112.33	3.6190	3.6190	-1.2139	6.44	0.47	-0.750			
0.3961	25347.47	3.6160	3.6159	-1.2236	6.44	0.47	-0.750			
0.3998	25584.54	3.6130	3.6130	-1.2377	6.45	0.48	-0.750			
0.4035	25821.05	3.6100	3.6102	-1.2626	6.45	0.48	-0.750			
0.4073	26070.25	3.6070	3.6069	-1.2756	6.45	0.48	-0.750			
0.4112	26316.68	3.6040	3.6039	-1.2858	6.45	0.48	-0.750			
0.4151	26563.34	3.6010	3.6012	-1.3064	6.45	0.48	-0.750	0.494	1.129	
0.4190	26815.90	3.5980	3.5979	-1.3202	6.46	0.49	-0.750			
0.4230	27071.79	3.5950	3.5949	-1.3379	6.46	0.49	-0.750			
0.4270	27326.60	3.5920	3.5919	-1.3556	6.47	0.50	-0.750			
0.4311	27592.01	3.5890	3.5890	-1.3851	6.47	0.50	-0.750			
0.4353	27860.99	3.5860	3.5860	-1.3991	6.48	0.51	-0.750			
0.4395	28129.96	3.5830	3.5831	-1.4185	6.49	0.52	-0.750			
0.4438	28403.63	3.5800	3.5799	-1.4300	6.49	0.52	-0.750			
0.4482	28682.20	3.5770	3.5769	-1.4500	6.49	0.52	-0.750			
0.4525	28961.24	3.5740	3.5742	-1.4661	6.49	0.52	-0.750			
0.4569	29243.88	3.5710	3.5709	-1.4707	6.49	0.52	-0.750			
0.4614	29528.68	3.5680	3.5679	-1.4992	6.49	0.52	-0.750			
0.4659	29818.18	3.5650	3.5652	-1.5214	6.49	0.52	-0.750			
0.4705	30109.90	3.5620	3.5619	-1.5347	6.50	0.53	-0.750			
0.4752	30411.77	3.5590	3.5589	-1.5707	6.51	0.54	-0.750			
0.4799	30712.37	3.5560	3.5560	-1.5914	6.51	0.54	-0.750			
0.4848	31025.92	3.5530	3.5529	-1.6119	6.51	0.54	-0.750			
0.4897	31338.92	3.5500	3.5501	-1.6132	6.51	0.54	-0.750			
0.4945	31647.17	3.5470	3.5470	-1.6167	6.52	0.55	-0.750			
0.4994	31960.43	3.5440	3.5438	-1.6352	6.52	0.55	-0.750			
0.5043	32272.58	3.5410	3.5410	-1.6391	6.53	0.56	-0.750			
0.5091	32585.06	3.5380	3.5381	-1.6572	6.53	0.56	-0.750			
0.5142	32907.56	3.5350	3.5350	-1.6653	6.53	0.56	-0.750			
0.5192	33229.91	3.5320	3.5321	-1.6806	6.53	0.56	-0.750			
0.5244	33560.25	3.5290	3.5291	-1.7025	6.53	0.56	-0.750			
0.5295	33885.30	3.5260	3.5260	-1.7112	6.53	0.56	-0.750			
0.5346	34212.92	3.5230	3.5232	-1.7185	6.53	0.56	-0.750			
0.5398	34547.18	3.5200	3.5201	-1.7157	6.53	0.56	-0.750			
0.5449	34872.78	3.5170	3.5169	-1.7270	6.54	0.57	-0.750			
0.5502	35209.98	3.5140	3.5140	-1.7319	6.55	0.58	-0.750			
0.5553	35541.89	3.5110	3.5108	-1.7260	6.55	0.58	-0.750			
0.5605	35872.89	3.5080	3.5081	-1.7363	6.55	0.58	-0.750			
0.5657	36205.98	3.5050	3.5051	-1.7336	6.55	0.58	-0.750			
0.5709	36539.97	3.5020	3.5020	-1.7349	6.55	0.58	-0.750			
0.5762	36876.80	3.4990	3.4990	-1.7238	6.56	0.59	-0.750			
0.5813	37204.41	3.4960	3.4959	-1.7108	6.56	0.59	-0.750			
0.5865	37538.65	3.4930	3.4929	-1.7017	6.57	0.60	-0.750			
0.5916	37859.57	3.4900	3.4901	-1.6810	6.57	0.60	-0.750			
0.5965	38179.18	3.4870	3.4872	-1.6577	6.57	0.60	-0.750			
0.6015	38496.93	3.4840	3.4840	-1.6328	6.57	0.60	-0.750			
0.6064	38809.76	3.4810	3.4809	-1.6322	6.58	0.61	-0.750			
0.6113	39122.48	3.4780	3.4780	-1.6197	6.58	0.61	-0.750			
0.6161	39430.90	3.4750	3.4751	-1.6077	6.59	0.62	-0.750			
0.6209	39738.97	3.4720	3.4723	-1.5895	6.60	0.63	-0.750			
0.6257	40043.26	3.4690	3.4690	-1.5649	6.61	0.64	-0.750			
0.6304	40345.34	3.4660	3.4658	-1.5460	6.62	0.65	-0.750			
0.6350	40638.44	3.4630	3.4631	-1.5237	6.63	0.66	-0.750			
0.6395	40928.16	3.4600	3.4600	-1.5109	6.64	0.67	-0.750			
0.6440	41217.47	3.4570	3.4568	-1.4859	6.65	0.68	-0.750			
0.6484	41500.58	3.4540	3.4539	-1.4529	6.66	0.69	-0.750			
0.6528	41776.57	3.4510	3.4512	-1.4288	6.67	0.70	-0.750			
0.6570	42046.50	3.4480	3.4480	-1.4037	6.68	0.71	-0.750			
0.6612	42314.75	3.4450	3.4450	-1.3813	6.68	0.71	-0.750			
0.6652	42575.41	3.4420	3.4420	-1.3586	6.69	0.72	-0.750			
0.6693	42835.86	3.4390	3.4390	-1.3413	6.70	0.73	-0.750			
0.6733	43093.36	3.4360	3.4360	-1.3157	6.71	0.74	-0.750			
0.6772	43342.87	3.4330	3.4331	-1.2855	6.72	0.75	-0.750			
0.6811	43587.78	3.4300	3.4300	-1.2557	6.73	0.76	-0.750			
0.6848	43825.39	3.4270	3.4270	-1.2220	6.74	0.77	-0.750			
0.6884	44057.24	3.4240	3.4240	-1.1940	6.74	0.77	-0.750			
0.6919	44281.86	3.4210	3.4211	-1.1633	6.75	0.78	-0.750			
0.6954	44504.74	3.4180	3.4180	-1.1382	6.77	0.80	-0.750			
0.6988	44720.43	3.4150	3.4150	-1.1064	6.78	0.81	-0.750			
0.7020	44929.31	3.4120	3.4120	-1.0746	6.79	0.82	-0.750			
0.7052	45131.75	3.4090	3.4090	-1.0511	6.80	0.83	-0.750			
0.7083	45331.08	3.4060	3.4060	-1.0253	6.81	0.84	-0.750			
0.7113	45525.66	3.4030	3.4029	-0.9937	6.82	0.85	-0.750			
0.7143	45714.30	3.4000	3.4000	-0.9648	6.83	0.86	-0.750			
0.7172	45898.25	3.3970	3.3970	-0.9407	6.84	0.87	-0.750			
0.7199	46075.72	3.3940	3.3940	-0.9155	6.85	0.88	-0.750			
0.7226	46248.55	3.3910	3.3910	-0.8875	6.86	0.89	-0.750			
0.7252	46414.33	3.3880	3.3880	-0.8549	6.88	0.91	-0.750			
0.7278	46576.95	3.3850	3.3850	-0.8330	6.89	0.92	-0.750			
0.7302	46735.93	3.3820	3.3820	-0.8106	6.90	0.93	-0.750			
0.7326	46887.92	3.3790	3.3790	-0.7828	6.91	0.94	-0.750			
0.7349	47034.99	3.3760	3.3759	-0.7619	6.92	0.95	-0.750			
0.7372	47180.29	3.3730	3.3730	-0.7572	6.93	0.96	-0.750			
