Ah_balance (normalized)	Ah_balance (mAh)	Voltage - fit (V)	Voltage -  interpolate (V)	dQ/dV (1/V)	Temperature (°C)	Temperature - diff (°C)	Current (C)	R_DC 0ms (mOhm)	R_DC 50ms (mOhm)	R_DC 50 ms PEC (mOhm)
0.0948	6066.12	4.0070	4.0064	-0.0701	5.97	0.02	-0.750			
0.0950	6082.47	4.0040	4.0037	-0.1002	5.96	0.01	-0.750			
0.0954	6105.29	4.0010	4.0009	-0.1293	5.96	0.01	-0.750			
0.0958	6133.32	3.9980	3.9980	-0.1558	5.96	0.01	-0.750			
0.0963	6165.82	3.9950	3.9950	-0.1820	5.96	0.01	-0.750			
0.0969	6203.41	3.9920	3.9921	-0.2066	5.96	0.01	-0.750			
0.0976	6247.17	3.9890	3.9890	-0.2293	5.96	0.01	-0.750			
0.0983	6293.32	3.9860	3.9859	-0.2519	5.96	0.01	-0.750			
0.0991	6343.17	3.9830	3.9831	-0.2762	5.96	0.01	-0.750			
0.1000	6398.47	3.9800	3.9800	-0.3011	5.96	0.01	-0.750			
0.1009	6458.32	3.9770	3.9769	-0.3262	5.96	0.01	-0.750			
0.1019	6523.75	3.9740	3.9741	-0.3489	5.95	0.00	-0.750			
0.1030	6593.19	3.9710	3.9710	-0.3735	5.95	0.00	-0.750			
0.1042	6667.27	3.9680	3.9680	-0.3972	5.95	0.00	-0.750			
0.1054	6745.87	3.9650	3.9650	-0.4191	5.95	-0.00	-0.750			
0.1067	6828.24	3.9620	3.9619	-0.4409	5.95	-0.00	-0.750			
0.1081	6915.71	3.9590	3.9591	-0.4613	5.94	-0.01	-0.750			
0.1095	7006.12	3.9560	3.9561	-0.4836	5.94	-0.01	-0.750			
0.1110	7101.69	3.9530	3.9530	-0.5076	5.94	-0.01	-0.750			
0.1125	7201.02	3.9500	3.9499	-0.5264	5.94	-0.01	-0.750			
0.1141	7303.85	3.9470	3.9470	-0.5464	5.93	-0.02	-0.750			
0.1158	7411.83	3.9440	3.9441	-0.5616	5.93	-0.02	-0.750			
0.1175	7522.08	3.9410	3.9410	-0.5790	5.93	-0.02	-0.750			
0.1193	7635.50	3.9380	3.9380	-0.5906	5.93	-0.02	-0.750			
0.1211	7748.36	3.9350	3.9350	-0.6044	5.92	-0.03	-0.750			
0.1229	7865.93	3.9320	3.9320	-0.6208	5.92	-0.03	-0.750			
0.1248	7987.29	3.9290	3.9290	-0.6337	5.92	-0.03	-0.750			
0.1267	8111.33	3.9260	3.9258	-0.6451	5.91	-0.04	-0.750			
0.1287	8238.15	3.9230	3.9232	-0.6522	5.91	-0.04	-0.750			
0.1307	8362.85	3.9200	3.9200	-0.6634	5.91	-0.04	-0.750			
0.1327	8491.72	3.9170	3.9170	-0.6703	5.91	-0.04	-0.750			
0.1347	8620.30	3.9140	3.9140	-0.6772	5.91	-0.04	-0.750			
0.1367	8749.35	3.9110	3.9110	-0.6814	5.91	-0.04	-0.750			
0.1388	8883.10	3.9080	3.9081	-0.6914	5.91	-0.04	-0.750			
0.1409	9016.37	3.9050	3.9049	-0.6982	5.91	-0.04	-0.750			
0.1430	9151.75	3.9020	3.9019	-0.7053	5.91	-0.04	-0.750			
0.1451	9286.29	3.8990	3.8990	-0.7037	5.91	-0.04	-0.750			
0.1472	9423.59	3.8960	3.8961	-0.7129	5.91	-0.04	-0.750			
0.1494	9561.39	3.8930	3.8930	-0.7116	5.92	-0.03	-0.750			
0.1515	9697.64	3.8900	3.8899	-0.7158	5.92	-0.03	-0.750			
0.1537	9834.55	3.8870	3.8871	-0.7173	5.92	-0.03	-0.750			
0.1558	9972.20	3.8840	3.8839	-0.7186	5.92	-0.03	-0.750			
0.1580	10110.20	3.8810	3.8809	-0.7238	5.92	-0.03	-0.750			
0.1602	10250.00	3.8780	3.8781	-0.7355	5.92	-0.03	-0.750			
0.1624	10391.52	3.8750	3.8750	-0.7387	5.93	-0.02	-0.750			
0.1647	10537.99	3.8720	3.8718	-0.7442	5.93	-0.02	-0.750			
0.1669	10680.14	3.8690	3.8694	-0.7422	5.93	-0.02	-0.750			
0.1691	10822.95	3.8660	3.8660	-0.7436	5.93	-0.02	-0.750			
0.1713	10964.67	3.8630	3.8630	-0.7464	5.94	-0.01	-0.750			
0.1735	11105.68	3.8600	3.8600	-0.7434	5.94	-0.01	-0.750			
0.1758	11250.47	3.8570	3.8570	-0.7495	5.94	-0.01	-0.750			
0.1780	11394.73	3.8540	3.8540	-0.7492	5.95	-0.00	-0.750			
0.1803	11540.87	3.8510	3.8510	-0.7513	5.95	0.00	-0.750			
0.1825	11682.67	3.8480	3.8481	-0.7519	5.96	0.01	-0.750			
0.1848	11826.01	3.8450	3.8450	-0.7520	5.96	0.01	-0.750			
0.1870	11970.23	3.8420	3.8420	-0.7525	5.96	0.01	-0.750			
0.1893	12117.16	3.8390	3.8389	-0.7493	5.97	0.02	-0.750			
0.1916	12262.16	3.8360	3.8361	-0.7482	5.97	0.02	-0.750			
0.1938	12404.56	3.8330	3.8331	-0.7496	5.97	0.02	-0.750			
0.1960	12547.13	3.8300	3.8300	-0.7519	5.98	0.03	-0.750			
0.1983	12691.65	3.8270	3.8269	-0.7561	5.98	0.03	-0.750			
0.2006	12837.14	3.8240	3.8240	-0.7602	5.98	0.03	-0.750			
0.2029	12985.84	3.8210	3.8210	-0.7636	5.99	0.04	-0.750			
0.2052	13133.73	3.8180	3.8181	-0.7624	5.99	0.04	-0.750			
0.2075	13280.38	3.8150	3.8149	-0.7583	6.00	0.05	-0.750			
0.2097	13423.87	3.8120	3.8119	-0.7563	6.00	0.05	-0.750			
0.2120	13566.64	3.8090	3.8091	-0.7509	6.00	0.05	-0.750			
0.2143	13713.19	3.8060	3.8060	-0.7567	6.01	0.06	-0.750			
0.2165	13857.75	3.8030	3.8030	-0.7581	6.01	0.06	-0.750			
0.2188	14003.67	3.8000	3.8000	-0.7615	6.02	0.07	-0.750			
0.2211	14149.47	3.7970	3.7970	-0.7666	6.02	0.07	-0.750			
0.2234	14297.82	3.7940	3.7940	-0.7662	6.03	0.08	-0.750			
0.2257	14444.55	3.7910	3.7910	-0.7665	6.04	0.09	-0.750			
0.2280	14593.95	3.7880	3.7880	-0.7675	6.05	0.10	-0.750			
0.2303	14740.82	3.7850	3.7851	-0.7644	6.05	0.10	-0.750			
0.2326	14885.07	3.7820	3.7820	-0.7660	6.05	0.10	-0.750			
0.2349	15032.74	3.7790	3.7790	-0.7660	6.05	0.10	-0.750			
0.2372	15179.46	3.7760	3.7760	-0.7632	6.05	0.10	-0.750			
0.2395	15327.13	3.7730	3.7729	-0.7656	6.05	0.10	-0.750			
0.2418	15474.38	3.7700	3.7705	-0.7661	6.05	0.10	-0.750			
0.2441	15621.56	3.7670	3.7669	-0.7683	6.06	0.11	-0.750			
0.2464	15767.94	3.7640	3.7640	-0.7713	6.06	0.11	-0.750			
0.2487	15916.75	3.7610	3.7610	-0.7720	6.07	0.12	-0.750			
0.2510	16065.72	3.7580	3.7579	-0.7788	6.08	0.13	-0.750			
0.2534	16215.63	3.7550	3.7549	-0.7792	6.09	0.14	-0.750			
0.2557	16365.81	3.7520	3.7519	-0.7789	6.09	0.14	-0.750			
0.2580	16513.64	3.7490	3.7490	-0.7865	6.10	0.15	-0.750			
0.2604	16664.50	3.7460	3.7460	-0.7855	6.10	0.15	-0.750			
0.2627	16814.69	3.7430	3.7430	-0.7879	6.10	0.15	-0.750			
0.2652	16970.93	3.7400	3.7399	-0.7935	6.11	0.16	-0.750			
0.2675	17121.66	3.7370	3.7371	-0.7942	6.11	0.16	-0.750			
0.2699	17275.04	3.7340	3.7340	-0.7961	6.11	0.16	-0.750			
0.2723	17427.03	3.7310	3.7310	-0.8064	6.11	0.16	-0.750			
0.2747	17580.25	3.7280	3.7278	-0.8076	6.12	0.17	-0.750			
0.2772	17738.84	3.7250	3.7250	-0.8205	6.12	0.17	-0.750			
0.2796	17897.17	3.7220	3.7222	-0.8245	6.12	0.17	-0.750			
0.2821	18057.15	3.7190	3.7189	-0.8304	6.12	0.17	-0.750			
0.2846	18217.03	3.7160	3.7160	-0.8405	6.12	0.17	-0.750			
0.2871	18371.38	3.7130	3.7130	-0.8756	6.13	0.18	-0.750			
0.2897	18541.48	3.7100	3.7099	-0.9009	6.13	0.18	-0.750			
0.2925	18721.66	3.7070	3.7068	-0.9106	6.13	0.18	-0.750			
0.2954	18904.07	3.7040	3.7042	-0.9237	6.14	0.19	-0.750			
0.2982	19084.94	3.7010	3.7012	-0.9220	6.14	0.19	-0.750			
0.3010	19263.13	3.6980	3.6980	-0.9175	6.14	0.19	-0.750			
0.3037	19434.95	3.6950	3.6949	-0.9041	6.15	0.20	-0.750			
0.3063	19601.16	3.6920	3.6920	-0.8955	6.16	0.21	-0.750			
0.3090	19774.51	3.6890	3.6891	-0.9077	6.16	0.21	-0.750			
0.3117	19950.49	3.6860	3.6859	-0.9124	6.17	0.22	-0.750			
0.3145	20125.89	3.6830	3.6830	-0.9188	6.18	0.23	-0.750			
0.3172	20303.27	3.6800	3.6801	-0.9275	6.19	0.24	-0.750			
0.3200	20482.05	3.6770	3.6769	-0.9386	6.20	0.25	-0.750			
0.3229	20663.65	3.6740	3.6739	-0.9460	6.20	0.25	-0.750			
0.3257	20846.00	3.6710	3.6710	-0.9547	6.20	0.25	-0.750			
0.3286	21030.24	3.6680	3.6681	-0.9654	6.21	0.26	-0.750			
0.3315	21216.40	3.6650	3.6649	-0.9819	6.21	0.26	-0.750			
0.3345	21405.25	3.6620	3.6619	-0.9876	6.21	0.26	-0.750			
0.3374	21595.83	3.6590	3.6590	-0.9985	6.21	0.26	-0.750			
0.3404	21788.46	3.6560	3.6559	-1.0048	6.21	0.26	-0.750			
0.3435	21986.02	3.6530	3.6529	-1.0136	6.21	0.26	-0.750			
0.3466	22180.37	3.6500	3.6500	-1.0260	6.22	0.27	-0.750			
0.3496	22376.44	3.6470	3.6469	-1.0328	6.22	0.27	-0.750			
0.3527	22574.58	3.6440	3.6439	-1.0390	6.23	0.28	-0.750			
0.3559	22777.17	3.6410	3.6411	-1.0602	6.23	0.28	-0.750			
0.3591	22982.10	3.6380	3.6380	-1.0697	6.23	0.28	-0.750			
0.3623	23189.04	3.6350	3.6350	-1.0810	6.23	0.28	-0.750			
0.3656	23395.84	3.6320	3.6320	-1.0899	6.23	0.28	-0.750			
0.3689	23608.64	3.6290	3.6290	-1.1084	6.23	0.28	-0.750			
0.3723	23824.80	3.6260	3.6259	-1.1149	6.23	0.28	-0.750			
0.3756	24039.04	3.6230	3.6230	-1.1231	6.23	0.28	-0.750			
0.3790	24253.93	3.6200	3.6203	-1.1311	6.23	0.28	-0.750			
0.3824	24474.20	3.6170	3.6168	-1.1520	6.23	0.28	-0.750			
0.3859	24696.28	3.6140	3.6139	-1.1593	6.24	0.29	-0.750			
0.3894	24918.43	3.6110	3.6110	-1.1660	6.25	0.30	-0.750			
0.3929	25147.23	3.6080	3.6081	-1.1934	6.25	0.30	-0.750			
0.3965	25378.07	3.6050	3.6049	-1.1983	6.25	0.30	-0.750			
0.4001	25606.76	3.6020	3.6019	-1.2047	6.24	0.29	-0.750			
0.4037	25834.46	3.5990	3.5990	-1.2154	6.24	0.29	-0.750			
0.4074	26071.61	3.5960	3.5960	-1.2350	6.24	0.29	-0.750			
0.4111	26311.45	3.5930	3.5929	-1.2475	6.25	0.30	-0.750	0.462	1.068	
0.4148	26550.12	3.5900	3.5900	-1.2639	6.25	0.30	-0.750			
0.4187	26796.60	3.5870	3.5870	-1.2631	6.25	0.30	-0.750			
0.4225	27042.00	3.5840	3.5840	-1.2857	6.25	0.30	-0.750			
0.4264	27286.96	3.5810	3.5809	-1.2905	6.25	0.30	-0.750			
0.4302	27534.78	3.5780	3.5782	-1.2992	6.25	0.30	-0.750			
0.4342	27787.48	3.5750	3.5747	-1.3196	6.25	0.30	-0.750			
0.4381	28041.49	3.5720	3.5720	-1.3376	6.25	0.30	-0.750			
0.4422	28297.78	3.5690	3.5693	-1.3531	6.25	0.30	-0.750			
0.4463	28566.18	3.5660	3.5660	-1.3751	6.25	0.30	-0.750			
0.4504	28828.79	3.5630	3.5629	-1.3759	6.25	0.30	-0.750			
0.4547	29098.75	3.5600	3.5602	-1.4003	6.25	0.30	-0.750			
0.4589	29366.86	3.5570	3.5570	-1.4159	6.25	0.30	-0.750			
0.4631	29638.14	3.5540	3.5539	-1.4298	6.25	0.30	-0.750			
0.4674	29914.14	3.5510	3.5511	-1.4446	6.25	0.30	-0.750			
0.4718	30196.80	3.5480	3.5479	-1.4657	6.26	0.31	-0.750			
0.4762	30477.36	3.5450	3.5450	-1.4917	6.27	0.32	-0.750			
0.4807	30767.99	3.5420	3.5420	-1.4964	6.27	0.32	-0.750			
0.4853	31057.94	3.5390	3.5389	-1.5204	6.28	0.33	-0.750			
0.4898	31350.24	3.5360	3.5360	-1.5259	6.29	0.34	-0.750			
0.4944	31642.16	3.5330	3.5329	-1.5428	6.29	0.34	-0.750			
0.4991	31942.50	3.5300	3.5300	-1.5496	6.29	0.34	-0.750			
0.5038	32241.67	3.5270	3.5270	-1.5543	6.29	0.34	-0.750			
0.5084	32538.66	3.5240	3.5240	-1.5574	6.30	0.35	-0.750			
0.5131	32840.40	3.5210	3.5208	-1.5843	6.31	0.36	-0.750			
0.5179	33143.24	3.5180	3.5180	-1.5762	6.32	0.37	-0.750			
0.5226	33448.06	3.5150	3.5151	-1.5859	6.32	0.37	-0.750			
0.5274	33754.33	3.5120	3.5121	-1.5855	6.33	0.38	-0.750			
0.5322	34061.81	3.5090	3.5088	-1.5848	6.34	0.39	-0.750			
0.5370	34365.97	3.5060	3.5059	-1.5957	6.35	0.40	-0.750			
0.5417	34669.97	3.5030	3.5032	-1.5961	6.37	0.42	-0.750			
0.5465	34978.73	3.5000	3.4999	-1.5895	6.38	0.43	-0.750			
0.5514	35287.55	3.4970	3.4969	-1.5873	6.39	0.44	-0.750			
0.5562	35593.64	3.4940	3.4939	-1.5709	6.40	0.45	-0.750			
0.5609	35896.61	3.4910	3.4911	-1.5768	6.41	0.46	-0.750			
0.5655	36193.51	3.4880	3.4881	-1.5651	6.43	0.48	-0.750			
0.5702	36491.05	3.4850	3.4848	-1.5558	6.44	0.49	-0.750			
0.5749	36790.99	3.4820	3.4822	-1.5549	6.44	0.49	-0.750			
0.5795	37089.02	3.4790	3.4791	-1.5537	6.45	0.50	-0.750			
0.5842	37385.66	3.4760	3.4760	-1.5428	6.47	0.52	-0.750			
0.5888	37683.15	3.4730	3.4730	-1.5381	6.48	0.53	-0.750			
0.5933	37972.24	3.4700	3.4700	-1.5271	6.49	0.54	-0.750			
0.5980	38269.49	3.4670	3.4671	-1.5182	6.51	0.56	-0.750			
0.6025	38562.73	3.4640	3.4639	-1.5114	6.52	0.57	-0.750			
0.6071	38855.35	3.4610	3.4608	-1.4924	6.54	0.59	-0.750			
0.6116	39139.66	3.4580	3.4580	-1.4698	6.55	0.60	-0.750			
0.6160	39421.70	3.4550	3.4551	-1.4580	6.57	0.62	-0.750			
0.6203	39698.85	3.4520	3.4518	-1.4197	6.58	0.63	-0.750			
0.6245	39965.02	3.4490	3.4489	-1.3948	6.59	0.64	-0.750			
0.6286	40230.56	3.4460	3.4464	-1.4024	6.61	0.66	-0.750			
0.6328	40496.04	3.4430	3.4428	-1.3936	6.63	0.68	-0.750			
0.6370	40770.72	3.4400	3.4398	-1.3777	6.65	0.70	-0.750			
0.6411	41032.53	3.4370	3.4372	-1.3617	6.67	0.72	-0.750			
0.6453	41300.70	3.4340	3.4341	-1.3608	6.68	0.73	-0.750			
0.6493	41558.14	3.4310	3.4309	-1.3258	6.69	0.74	-0.750			
0.6532	41803.56	3.4280	3.4281	-1.2808	6.71	0.76	-0.750			
0.6570	42045.44	3.4250	3.4250	-1.2467	6.72	0.77	-0.750			
0.6607	42284.90	3.4220	3.4220	-1.2263	6.74	0.79	-0.750			
0.6643	42518.29	3.4190	3.4190	-1.1994	6.76	0.81	-0.750			
0.6678	42741.89	3.4160	3.4160	-1.1723	6.78	0.83	-0.750			
0.6714	42969.27	3.4130	3.4130	-1.1519	6.80	0.85	-0.750			
0.6748	43189.26	3.4100	3.4099	-1.1212	6.82	0.87	-0.750			
0.6782	43402.22	3.4070	3.4071	-1.0934	6.83	0.88	-0.750			
0.6814	43609.33	3.4040	3.4040	-1.0673	6.85	0.90	-0.750			
0.6845	43809.47	3.4010	3.4010	-1.0354	6.87	0.92	-0.750			
0.6876	44004.38	3.3980	3.3979	-1.0047	6.89	0.94	-0.750			
0.6905	44193.30	3.3950	3.3950	-0.9774	6.90	0.95	-0.750			
0.6935	44381.34	3.3920	3.3920	-0.9573	6.92	0.97	-0.750			
0.6963	44561.95	3.3890	3.3890	-0.9330	6.93	0.98	-0.750			
0.6990	44738.27	3.3860	3.3860	-0.9054	6.94	0.99	-0.750			
0.7017	44909.93	3.3830	3.3830	-0.8795	6.96	1.01	-0.750			
0.7043	45077.71	3.3800	3.3801	-0.8539	6.97	1.02	-0.750			
0.7069	45238.93	3.3770	3.3770	-0.8295	6.99	1.04	-0.750			
0.7093	45394.39	3.3740	3.3740	-0.8090	7.00	1.05	-0.750			
0.7117	45546.52	3.3710	3.3709	-0.7867	7.02	1.07	-0.750			
0.7140	45695.73	3.3680	3.3679	-0.7673	7.03	1.08	-0.750			
0.7163	45841.71	3.3650	3.3652	-0.7476	7.05	1.10	-0.750			
0.7185	45985.09	3.3620	3.3619	-0.7292	7.06	1.11	-0.750			
0.7207	46122.69	3.3590	3.3590	-0.7083	7.07	1.12	-0.750			
0.7227	46253.49	3.3560	3.3560	-0.6863	7.08	1.13	-0.750			
0.7247	46382.43	3.3530	3.3530	-0.6736	7.09	1.14	-0.750			
0.7267	46511.13	3.3500	3.3499	-0.6620	7.10	1.15	-0.750			
0.7287	46637.72	3.3470	3.3469	-0.6615	7.11	1.16	-0.750			
