Ah_balance (normalized)	Ah_balance (mAh)	Voltage - fit (V)	Voltage -  interpolate (V)	dQ/dV (1/V)	Temperature (°C)	Temperature - diff (°C)	Current (C)	R_DC 0ms (mOhm)	R_DC 50ms (mOhm)	R_DC 50 ms PEC (mOhm)
0.0050	318.13	4.1970	4.1940	1.0230	24.49	-0.43	0.082			
0.0088	565.68	4.1940	4.1910	1.3935	24.50	-0.42	0.082			
0.0136	869.14	4.1910	4.1997	1.5202	24.49	-0.43	0.250	0.286	0.451	
0.0179	1148.70	4.1880	4.1943	1.4081	24.49	-0.43	0.250			
0.0226	1449.10	4.1850	4.1884	1.3467	24.49	-0.43	0.250	0.340	0.461	
0.0287	1837.93	4.1820	4.1807	1.2338	24.48	-0.44	0.250			
0.0303	1938.86	4.1790	4.1791	0.7989	24.48	-0.44	0.250			
0.0327	2090.83	4.1760	4.1761	0.7996	24.48	-0.44	0.250			
0.0351	2243.48	4.1730	4.1731	0.7951	24.48	-0.44	0.250			
0.0374	2393.97	4.1700	4.1698	0.8008	24.47	-0.45	0.250			
0.0398	2545.06	4.1670	4.1672	0.8065	24.47	-0.45	0.250			
0.0422	2702.58	4.1640	4.1641	0.8154	24.47	-0.45	0.250			
0.0448	2864.17	4.1610	4.1611	0.8149	24.47	-0.45	0.250	0.256	0.395	
0.0472	3019.80	4.1580	4.1580	0.8131	24.47	-0.45	0.250			
0.0496	3174.82	4.1550	4.1551	0.8135	24.47	-0.45	0.250			
0.0520	3330.36	4.1520	4.1519	0.8156	24.47	-0.45	0.250			
0.0545	3485.46	4.1490	4.1490	0.8097	24.47	-0.45	0.250			
0.0569	3641.51	4.1460	4.1460	0.8053	24.46	-0.46	0.250			
0.0593	3797.15	4.1430	4.1430	0.8159	24.45	-0.47	0.250			
0.0618	3954.31	4.1400	4.1401	0.8195	24.45	-0.47	0.250			
0.0642	4110.91	4.1370	4.1375	0.8156	24.44	-0.48	0.250	0.289	0.402	
0.0667	4265.62	4.1340	4.1341	0.8269	24.43	-0.49	0.250			
0.0692	4428.51	4.1310	4.1311	0.8219	24.43	-0.49	0.250			
0.0717	4590.71	4.1280	4.1278	0.8155	24.43	-0.49	0.250			
0.0741	4742.87	4.1250	4.1250	0.8067	24.43	-0.49	0.250			
0.0765	4893.33	4.1220	4.1221	0.8054	24.43	-0.49	0.250			
0.0789	5047.53	4.1190	4.1187	0.8092	24.43	-0.49	0.250			
0.0813	5202.07	4.1160	4.1159	0.8174	24.43	-0.49	0.250			
0.0837	5358.53	4.1130	4.1129	0.8205	24.43	-0.49	0.250	0.331	0.466	
0.0863	5523.63	4.1100	4.1101	0.8372	24.42	-0.50	0.250			
0.0888	5684.12	4.1070	4.1070	0.8324	24.41	-0.51	0.250			
0.0913	5843.44	4.1040	4.1040	0.8278	24.43	-0.49	0.250			
0.0938	6002.43	4.1010	4.1010	0.8262	24.42	-0.50	0.250			
0.0962	6159.56	4.0980	4.0981	0.8290	24.41	-0.51	0.250			
0.0987	6318.30	4.0950	4.0951	0.8299	24.41	-0.51	0.250			
0.1012	6478.84	4.0920	4.0916	0.8303	24.41	-0.51	0.250			
0.1037	6637.96	4.0890	4.0891	0.8305	24.41	-0.51	0.250	0.310	0.422	
0.1062	6797.68	4.0860	4.0860	0.8396	24.41	-0.51	0.250			
0.1087	6959.22	4.0830	4.0829	0.8423	24.41	-0.51	0.250			
0.1112	7119.96	4.0800	4.0800	0.8375	24.41	-0.51	0.250			
0.1138	7283.92	4.0770	4.0771	0.8383	24.41	-0.51	0.250			
0.1163	7444.84	4.0740	4.0739	0.8416	24.41	-0.51	0.250			
0.1188	7604.92	4.0710	4.0710	0.8480	24.41	-0.51	0.250			
0.1214	7767.78	4.0680	4.0679	0.8516	24.41	-0.51	0.250			
0.1239	7930.72	4.0650	4.0647	0.8533	24.41	-0.51	0.250	0.331	0.397	
0.1265	8096.46	4.0620	4.0620	0.8501	24.41	-0.51	0.250			
0.1291	8263.47	4.0590	4.0590	0.8489	24.40	-0.52	0.250			
0.1316	8425.26	4.0560	4.0560	0.8490	24.40	-0.52	0.250			
0.1341	8585.52	4.0530	4.0529	0.8443	24.39	-0.53	0.250			
0.1366	8745.25	4.0500	4.0500	0.8509	24.39	-0.53	0.250			
0.1392	8909.99	4.0470	4.0472	0.8599	24.39	-0.53	0.250			
0.1418	9076.85	4.0440	4.0440	0.8667	24.39	-0.53	0.250			
0.1445	9245.73	4.0410	4.0409	0.8692	24.39	-0.53	0.250	0.215	0.359	
0.1471	9414.68	4.0380	4.0379	0.8727	24.39	-0.53	0.250			
0.1497	9581.55	4.0350	4.0349	0.8706	24.39	-0.53	0.250			
0.1523	9747.52	4.0320	4.0320	0.8701	24.39	-0.53	0.250			
0.1549	9913.35	4.0290	4.0291	0.8714	24.39	-0.53	0.250			
0.1575	10080.74	4.0260	4.0260	0.8728	24.39	-0.53	0.250			
0.1601	10249.39	4.0230	4.0230	0.8772	24.39	-0.53	0.250			
0.1628	10418.91	4.0200	4.0200	0.8850	24.39	-0.53	0.250			
0.1655	10589.45	4.0170	4.0170	0.8887	24.39	-0.53	0.250	0.244	0.402	
0.1681	10760.71	4.0140	4.0140	0.8913	24.39	-0.53	0.250			
0.1708	10932.64	4.0110	4.0111	0.8917	24.39	-0.53	0.250			
0.1735	11104.64	4.0080	4.0080	0.8959	24.40	-0.52	0.250			
0.1762	11274.13	4.0050	4.0050	0.8991	24.40	-0.52	0.250			
0.1789	11447.95	4.0020	4.0020	0.9037	24.39	-0.53	0.250			
0.1816	11622.56	3.9990	3.9988	0.9065	24.39	-0.53	0.250			
0.1843	11797.51	3.9960	3.9959	0.9112	24.40	-0.52	0.250	0.304	0.399	
0.1871	11973.50	3.9930	3.9930	0.9149	24.40	-0.52	0.250			
0.1898	12149.36	3.9900	3.9900	0.9195	24.40	-0.52	0.250			
0.1926	12325.00	3.9870	3.9871	0.9186	24.40	-0.52	0.250			
0.1953	12501.30	3.9840	3.9842	0.9208	24.41	-0.51	0.250			
0.1981	12679.47	3.9810	3.9811	0.9301	24.41	-0.51	0.250			
0.2009	12859.37	3.9780	3.9780	0.9295	24.41	-0.51	0.250			
0.2037	13037.28	3.9750	3.9749	0.9333	24.41	-0.51	0.250	0.312	0.409	
0.2065	13217.73	3.9720	3.9721	0.9336	24.42	-0.50	0.250			
0.2093	13395.37	3.9690	3.9689	0.9350	24.43	-0.49	0.250			
0.2121	13574.62	3.9660	3.9659	0.9400	24.43	-0.49	0.250			
0.2149	13754.85	3.9630	3.9629	0.9445	24.43	-0.49	0.250			
0.2178	13936.76	3.9600	3.9600	0.9540	24.43	-0.49	0.250			
0.2207	14121.64	3.9570	3.9570	0.9596	24.43	-0.49	0.250			
0.2235	14306.24	3.9540	3.9538	0.9633	24.44	-0.48	0.250	0.280	0.380	
0.2265	14493.31	3.9510	3.9512	0.9659	24.45	-0.47	0.250			
0.2293	14678.20	3.9480	3.9481	0.9673	24.47	-0.45	0.250			
0.2323	14864.72	3.9450	3.9450	0.9706	24.47	-0.45	0.250			
0.2351	15049.26	3.9420	3.9419	0.9721	24.48	-0.44	0.250			
0.2381	15237.00	3.9390	3.9391	0.9779	24.49	-0.43	0.250			
0.2410	15426.17	3.9360	3.9359	0.9763	24.50	-0.42	0.250			
0.2440	15613.85	3.9330	3.9328	0.9790	24.50	-0.42	0.250	0.283	0.389	
0.2469	15801.57	3.9300	3.9300	0.9739	24.51	-0.41	0.250			
0.2498	15987.92	3.9270	3.9269	0.9783	24.53	-0.39	0.250			
0.2527	16175.98	3.9240	3.9239	0.9767	24.53	-0.39	0.250			
0.2557	16361.85	3.9210	3.9209	0.9842	24.53	-0.39	0.250			
0.2586	16553.24	3.9180	3.9178	0.9865	24.55	-0.37	0.250			
0.2616	16745.11	3.9150	3.9149	0.9902	24.55	-0.37	0.250			
0.2646	16935.68	3.9120	3.9119	0.9890	24.56	-0.36	0.250	0.249	0.414	
0.2676	17126.40	3.9090	3.9090	0.9844	24.57	-0.35	0.250			
0.2706	17316.44	3.9060	3.9062	0.9739	24.59	-0.33	0.250			
0.2735	17504.05	3.9030	3.9031	0.9630	24.59	-0.33	0.250			
0.2763	17685.79	3.9000	3.9001	0.9559	24.59	-0.33	0.250			
0.2792	17868.16	3.8970	3.8970	0.9500	24.61	-0.31	0.250			
0.2820	18049.85	3.8940	3.8939	0.9483	24.62	-0.30	0.250			
0.2849	18231.93	3.8910	3.8910	0.9366	24.62	-0.30	0.250	0.282	0.429	
0.2877	18413.90	3.8880	3.8880	0.9273	24.63	-0.29	0.250			
0.2905	18592.38	3.8850	3.8850	0.9147	24.63	-0.29	0.250			
0.2932	18765.12	3.8820	3.8817	0.8951	24.63	-0.29	0.250			
0.2959	18934.91	3.8790	3.8791	0.8793	24.63	-0.29	0.250			
0.2984	19100.50	3.8760	3.8762	0.8724	24.64	-0.28	0.250			
0.3010	19267.08	3.8730	3.8730	0.8604	24.65	-0.27	0.250			
0.3036	19432.01	3.8700	3.8700	0.8469	24.66	-0.26	0.250	0.364	0.413	
0.3062	19596.23	3.8670	3.8670	0.8313	24.66	-0.26	0.250			
0.3086	19753.56	3.8640	3.8640	0.8190	24.67	-0.25	0.250			
0.3111	19908.37	3.8610	3.8610	0.8061	24.67	-0.25	0.250			
0.3134	20059.39	3.8580	3.8579	0.7964	24.67	-0.25	0.250			
0.3158	20208.49	3.8550	3.8550	0.7907	24.67	-0.25	0.250			
0.3182	20361.62	3.8520	3.8520	0.7981	24.68	-0.24	0.250			
0.3205	20515.06	3.8490	3.8490	0.8054	24.69	-0.23	0.250			
0.3230	20670.45	3.8460	3.8460	0.8106	24.69	-0.23	0.250			
0.3254	20825.88	3.8430	3.8430	0.8139	24.69	-0.23	0.250	0.336	0.400	
0.3279	20983.14	3.8400	3.8399	0.8236	24.69	-0.23	0.250			
0.3304	21142.65	3.8370	3.8371	0.8268	24.69	-0.23	0.250			
0.3328	21300.48	3.8340	3.8340	0.8368	24.70	-0.22	0.250			
0.3353	21461.48	3.8310	3.8310	0.8506	24.70	-0.22	0.250			
0.3379	21623.81	3.8280	3.8278	0.8606	24.71	-0.21	0.250			
0.3405	21790.49	3.8250	3.8250	0.8873	24.71	-0.21	0.250			
0.3432	21964.04	3.8220	3.8221	0.9058	24.71	-0.21	0.250			
0.3459	22140.64	3.8190	3.8190	0.9273	24.71	-0.21	0.250	0.326	0.406	
0.3488	22322.56	3.8160	3.8161	0.9392	24.72	-0.20	0.250			
0.3516	22503.50	3.8130	3.8130	0.9536	24.72	-0.20	0.250			
0.3545	22689.51	3.8100	3.8102	0.9663	24.72	-0.20	0.250			
0.3574	22872.26	3.8070	3.8070	0.9762	24.73	-0.19	0.250			
0.3603	23061.00	3.8040	3.8041	0.9960	24.73	-0.19	0.250			
0.3634	23254.81	3.8010	3.8009	1.0106	24.73	-0.19	0.250	0.239	0.381	
0.3664	23451.26	3.7980	3.7980	1.0291	24.73	-0.19	0.250			
0.3695	23650.29	3.7950	3.7950	1.0461	24.72	-0.20	0.250			
0.3727	23852.92	3.7920	3.7920	1.0609	24.72	-0.20	0.250			
0.3759	24057.67	3.7890	3.7890	1.0751	24.73	-0.19	0.250			
0.3791	24265.28	3.7860	3.7861	1.0940	24.73	-0.19	0.250			
0.3825	24478.02	3.7830	3.7831	1.1150	24.73	-0.19	0.250			
0.3858	24693.78	3.7800	3.7801	1.1283	24.73	-0.19	0.250	0.060	0.414	
0.3892	24910.77	3.7770	3.7772	1.1444	24.72	-0.20	0.250			
0.3927	25131.05	3.7740	3.7740	1.1677	24.71	-0.21	0.250			
0.3962	25355.91	3.7710	3.7708	1.1947	24.72	-0.20	0.250			
0.3998	25586.45	3.7680	3.7679	1.2134	24.71	-0.21	0.250			
0.4035	25824.84	3.7650	3.7649	1.2381	24.71	-0.21	0.250	0.277	0.413	
0.4073	26064.53	3.7620	3.7621	1.2602	24.71	-0.21	0.250			
0.4111	26310.78	3.7590	3.7589	1.2749	24.70	-0.22	0.250			
0.4149	26554.65	3.7560	3.7558	1.2892	24.70	-0.22	0.250			
0.4188	26803.05	3.7530	3.7531	1.3110	24.69	-0.23	0.250			
0.4228	27057.81	3.7500	3.7500	1.3388	24.70	-0.22	0.250			
0.4268	27316.05	3.7470	3.7470	1.3617	24.69	-0.23	0.250	0.365	0.458	
0.4309	27579.94	3.7440	3.7440	1.3883	24.68	-0.24	0.250			
0.4351	27849.35	3.7410	3.7410	1.4316	24.67	-0.25	0.250			
0.4395	28128.14	3.7380	3.7380	1.4705	24.68	-0.24	0.250			
0.4440	28412.85	3.7350	3.7349	1.5001	24.69	-0.23	0.250	0.311	0.445	
0.4485	28707.08	3.7320	3.7321	1.5351	24.68	-0.24	0.250			
0.4532	29003.63	3.7290	3.7289	1.5824	24.67	-0.25	0.250			
0.4580	29312.36	3.7260	3.7260	1.6177	24.67	-0.25	0.250			
0.4629	29624.48	3.7230	3.7229	1.6554	24.67	-0.25	0.250			
0.4679	29946.48	3.7200	3.7202	1.7031	24.67	-0.25	0.250			
0.4731	30279.39	3.7170	3.7171	1.7579	24.65	-0.27	0.250			
0.4784	30619.24	3.7140	3.7141	1.8076	24.65	-0.27	0.250			
0.4839	30970.05	3.7110	3.7110	1.8545	24.65	-0.27	0.250	0.204	0.415	
0.4896	31331.77	3.7080	3.7080	1.9305	24.64	-0.28	0.250			
0.4954	31706.71	3.7050	3.7051	2.0016	24.63	-0.29	0.250			
0.5016	32099.21	3.7020	3.7020	2.0739	24.62	-0.30	0.250			
0.5079	32505.80	3.6990	3.6992	2.1562	24.61	-0.31	0.250	0.316	0.408	
0.5145	32927.96	3.6960	3.6960	2.2334	24.60	-0.32	0.250			
0.5213	33363.62	3.6930	3.6927	2.3150	24.57	-0.35	0.250			
0.5283	33810.91	3.6900	3.6901	2.4020	24.56	-0.36	0.250	0.393	0.472	
0.5356	34280.64	3.6870	3.6870	2.4896	24.53	-0.39	0.250			
0.5433	34768.51	3.6840	3.6839	2.5880	24.51	-0.41	0.250	0.306	0.420	
0.5512	35274.29	3.6810	3.6812	2.6966	24.49	-0.43	0.250			
0.5594	35803.39	3.6780	3.6779	2.8082	24.45	-0.47	0.250			
0.5680	36351.61	3.6750	3.6750	2.9146	24.42	-0.50	0.250	0.295	0.416	
0.5770	36925.93	3.6720	3.6720	3.0010	24.38	-0.54	0.250			
0.5861	37510.56	3.6690	3.6691	3.0768	24.35	-0.57	0.250	0.290	0.452	
0.5955	38110.54	3.6660	3.6659	3.1558	24.31	-0.61	0.250			
0.6051	38723.27	3.6630	3.6629	3.1909	24.29	-0.63	0.250	0.331	0.460	
0.6148	39346.40	3.6600	3.6600	3.2091	24.26	-0.66	0.250			
0.6245	39969.33	3.6570	3.6569	3.1335	24.23	-0.69	0.250	0.315	0.440	
0.6339	40567.94	3.6540	3.6540	2.9647	24.21	-0.71	0.250			
0.6426	41126.95	3.6510	3.6510	2.7607	24.20	-0.72	0.250	0.310	0.465	
0.6504	41626.27	3.6480	3.6481	2.5070	24.19	-0.73	0.250			
0.6575	42081.64	3.6450	3.6450	2.2681	24.18	-0.74	0.250			
0.6640	42493.24	3.6420	3.6418	2.0445	24.18	-0.74	0.250	0.341	0.466	
0.6697	42860.31	3.6390	3.6392	1.8283	24.17	-0.75	0.250			
0.6749	43190.92	3.6360	3.6361	1.6620	24.17	-0.75	0.250			
0.6795	43487.24	3.6330	3.6331	1.5099	24.17	-0.75	0.250			
0.6836	43751.24	3.6300	3.6299	1.3981	24.16	-0.76	0.250	0.298	0.458	
0.6875	43999.54	3.6270	3.6270	1.3210	24.17	-0.75	0.250			
0.6913	44244.76	3.6240	3.6240	1.2941	24.17	-0.75	0.250			
0.6951	44488.11	3.6210	3.6210	1.2927	24.17	-0.75	0.250			
0.6989	44731.66	3.6180	3.6180	1.2934	24.17	-0.75	0.250			
0.7029	44984.24	3.6150	3.6149	1.2997	24.17	-0.75	0.250			
0.7068	45235.53	3.6120	3.6120	1.2994	24.18	-0.74	0.250	0.274	0.456	
0.7107	45487.01	3.6090	3.6091	1.2899	24.19	-0.73	0.250			
0.7146	45737.59	3.6060	3.6059	1.2669	24.19	-0.73	0.250			
0.7184	45978.04	3.6030	3.6030	1.2323	24.19	-0.73	0.250			
0.7221	46211.23	3.6000	3.6001	1.1974	24.19	-0.73	0.250			
0.7256	46438.84	3.5970	3.5970	1.1696	24.21	-0.71	0.250	0.278	0.497	
0.7290	46659.09	3.5940	3.5941	1.1388	24.20	-0.72	0.250			
0.7324	46871.13	3.5910	3.5910	1.1274	24.21	-0.71	0.250			
0.7357	47085.00	3.5880	3.5880	1.1189	24.21	-0.71	0.250			
0.7390	47298.95	3.5850	3.5850	1.1172	24.22	-0.70	0.250			
0.7424	47513.52	3.5820	3.5820	1.1237	24.24	-0.68	0.250			
0.7458	47730.92	3.5790	3.5790	1.1201	24.25	-0.67	0.250	0.318	0.469	
0.7492	47947.67	3.5760	3.5760	1.1168	24.26	-0.66	0.250			
0.7525	48160.60	3.5730	3.5729	1.1138	24.27	-0.65	0.250			
0.7558	48370.86	3.5700	3.5700	1.1212	24.27	-0.65	0.250			
0.7591	48584.10	3.5670	3.5669	1.1329	24.27	-0.65	0.250			
0.7625	48802.90	3.5640	3.5639	1.1598	24.28	-0.64	0.250			
0.7661	49028.52	3.5610	3.5611	1.1955	24.29	-0.63	0.250	0.246	0.450	
0.7697	49262.03	3.5580	3.5581	1.2422	24.30	-0.62	0.250			
0.7735	49501.52	3.5550	3.5552	1.2921	24.31	-0.61	0.250			
0.7774	49751.25	3.5520	3.5520	1.3624	24.32	-0.60	0.250			
0.7815	50015.08	3.5490	3.5490	1.4434	24.32	-0.60	0.250			
0.7859	50297.99	3.5460	3.5460	1.5375	24.34	-0.58	0.250	0.317	0.495	
0.7907	50602.63	3.5430	3.5430	1.6506	24.35	-0.57	0.250			
0.7958	50930.38	3.5400	3.5400	1.7752	24.37	-0.55	0.250			
0.8013	51284.09	3.5370	3.5372	1.8971	24.37	-0.55	0.250			
0.8072	51660.81	3.5340	3.5341	2.0152	24.38	-0.54	0.250	0.332	0.509	
0.8135	52066.22	3.5310	3.5310	2.1137	24.38	-0.54	0.250			
0.8201	52488.03	3.5280	3.5280	2.1812	24.41	-0.51	0.250			
0.8269	52921.65	3.5250	3.5250	2.2128	24.41	-0.51	0.250	0.295	0.504	
0.8337	53356.41	3.5220	3.5219	2.1748	24.42	-0.50	0.250			
0.8404	53785.29	3.5190	3.5189	2.0477	24.44	-0.48	0.250			
0.8466	54181.84	3.5160	3.5160	1.8134	24.43	-0.49	0.250	0.287	0.508	
0.8520	54525.13	3.5130	3.5133	1.5282	24.45	-0.47	0.250			
0.8562	54794.18	3.5100	3.5100	1.1998	24.46	-0.46	0.250			
0.8590	54976.32	3.5070	3.5066	0.9101	24.47	-0.45	0.250			
0.8608	55093.08	3.5040	3.5038	0.6744	24.49	-0.43	0.250			
0.8623	55185.01	3.5010	3.5007	0.5254	24.50	-0.42	0.250			
0.8635	55264.05	3.4980	3.4981	0.4466	24.50	-0.42	0.250			
0.8647	55338.59	3.4950	3.4949	0.3991	24.51	-0.41	0.250	0.314	0.497	
0.8658	55410.39	3.4920	3.4920	0.3695	24.51	-0.41	0.250			
0.8668	55478.24	3.4890	3.4890	0.3495	24.52	-0.40	0.250			
0.8679	55542.85	3.4860	3.4861	0.3312	24.53	-0.39	0.250			
0.8688	55604.72	3.4830	3.4829	0.3177	24.53	-0.39	0.250			
0.8697	55662.78	3.4800	3.4799	0.3057	24.54	-0.38	0.250			
0.8706	55719.58	3.4770	3.4770	0.2953	24.55	-0.37	0.250			
0.8715	55775.35	3.4740	3.4740	0.2877	24.55	-0.37	0.250			
0.8724	55830.80	3.4710	3.4711	0.2824	24.56	-0.36	0.250			
0.8732	55884.00	3.4680	3.4680	0.2769	24.56	-0.36	0.250			
0.8740	55936.31	3.4650	3.4650	0.2718	24.56	-0.36	0.250			
0.8748	55987.68	3.4620	3.4619	0.2658	24.57	-0.35	0.250			
0.8756	56038.19	3.4590	3.4590	0.2617	24.57	-0.35	0.250			
0.8764	56088.33	3.4560	3.4560	0.2584	24.58	-0.34	0.250			
0.8771	56137.51	3.4530	3.4530	0.2545	24.59	-0.33	0.250			
0.8779	56186.01	3.4500	3.4499	0.2510	24.60	-0.32	0.250			
0.8786	56233.48	3.4470	3.4470	0.2470	24.60	-0.32	0.250			
0.8794	56280.64	3.4440	3.4440	0.2429	24.61	-0.31	0.250			
0.8801	56327.25	3.4410	3.4410	0.2404	24.61	-0.31	0.250			
0.8808	56373.11	3.4380	3.4381	0.2360	24.62	-0.30	0.250			
0.8815	56417.98	3.4350	3.4349	0.2319	24.62	-0.30	0.250			
0.8822	56462.19	3.4320	3.4320	0.2277	24.62	-0.30	0.250			
0.8829	56505.50	3.4290	3.4291	0.2233	24.63	-0.29	0.250			
0.8836	56547.49	3.4260	3.4259	0.2212	24.63	-0.29	0.250			
0.8842	56589.68	3.4230	3.4230	0.2196	24.64	-0.28	0.250			
0.8849	56631.76	3.4200	3.4200	0.2164	24.64	-0.28	0.250	0.336	0.540	
0.8855	56672.85	3.4170	3.4171	0.2140	24.65	-0.27	0.250			
0.8862	56713.97	3.4140	3.4141	0.2124	24.66	-0.26	0.250			
0.8868	56754.60	3.4110	3.4111	0.2100	24.66	-0.26	0.250			
0.8874	56794.86	3.4080	3.4081	0.2078	24.67	-0.25	0.250			
0.8880	56834.13	3.4050	3.4050	0.2036	24.67	-0.25	0.250			
0.8886	56873.11	3.4020	3.4021	0.2012	24.67	-0.25	0.250			
0.8892	56911.61	3.3990	3.3990	0.1989	24.68	-0.24	0.250			
0.8898	56950.18	3.3960	3.3960	0.1959	24.68	-0.24	0.250			
0.8904	56986.89	3.3930	3.3930	0.1928	24.68	-0.24	0.250			
0.8910	57023.37	3.3900	3.3900	0.1903	24.69	-0.23	0.250			
0.8916	57059.71	3.3870	3.3871	0.1885	24.69	-0.23	0.250			
0.8921	57095.56	3.3840	3.3839	0.1866	24.69	-0.23	0.250			
0.8927	57131.32	3.3810	3.3810	0.1846	24.70	-0.22	0.250			
0.8932	57166.88	3.3780	3.3780	0.1825	24.70	-0.22	0.250			
0.8938	57201.69	3.3750	3.3751	0.1800	24.71	-0.21	0.250			
0.8943	57236.37	3.3720	3.3719	0.1777	24.71	-0.21	0.250			
0.8948	57269.85	3.3690	3.3690	0.1751	24.72	-0.20	0.250			
0.8954	57303.03	3.3660	3.3660	0.1732	24.72	-0.20	0.250			
0.8959	57336.04	3.3630	3.3629	0.1710	24.73	-0.19	0.250			
0.8964	57368.74	3.3600	3.3600	0.1696	24.73	-0.19	0.250			
0.8969	57401.18	3.3570	3.3570	0.1679	24.74	-0.18	0.250			
0.8974	57433.42	3.3540	3.3540	0.1665	24.74	-0.18	0.250			
0.8979	57465.43	3.3510	3.3510	0.1643	24.74	-0.18	0.250			
0.8984	57496.74	3.3480	3.3480	0.1618	24.75	-0.17	0.250			
0.8989	57527.43	3.3450	3.3450	0.1603	24.75	-0.17	0.250			
0.8993	57557.95	3.3420	3.3421	0.1582	24.75	-0.17	0.250			
0.8998	57588.17	3.3390	3.3390	0.1565	24.76	-0.16	0.250			
0.9003	57618.05	3.3360	3.3360	0.1548	24.76	-0.16	0.250			
0.9007	57647.52	3.3330	3.3331	0.1530	24.76	-0.16	0.250			
0.9012	57676.68	3.3300	3.3300	0.1515	24.77	-0.15	0.250			
0.9017	57705.67	3.3270	3.3271	0.1500	24.77	-0.15	0.250			
0.9021	57734.49	3.3240	3.3239	0.1486	24.77	-0.15	0.250			
0.9025	57762.68	3.3210	3.3210	0.1463	24.78	-0.14	0.250			
0.9030	57790.85	3.3180	3.3181	0.1449	24.78	-0.14	0.250			
0.9034	57818.52	3.3150	3.3150	0.1429	24.78	-0.14	0.250			
0.9038	57845.59	3.3120	3.3120	0.1418	24.79	-0.13	0.250			
0.9043	57872.57	3.3090	3.3090	0.1403	24.79	-0.13	0.250			
0.9047	57899.15	3.3060	3.3060	0.1389	24.79	-0.13	0.250			
0.9051	57925.85	3.3030	3.3028	0.1375	24.80	-0.12	0.250	0.356	0.577	
0.9055	57952.23	3.3000	3.3001	0.1358	24.80	-0.12	0.250			
0.9059	57978.34	3.2970	3.2970	0.1345	24.80	-0.12	0.250			
0.9063	58003.97	3.2940	3.2940	0.1325	24.80	-0.12	0.250			
0.9067	58029.32	3.2910	3.2910	0.1311	24.81	-0.11	0.250			
0.9071	58053.90	3.2880	3.2880	0.1291	24.81	-0.11	0.250			
0.9075	58078.58	3.2850	3.2850	0.1281	24.81	-0.11	0.250			
0.9079	58103.16	3.2820	3.2820	0.1269	24.82	-0.10	0.250			
0.9082	58127.40	3.2790	3.2790	0.1257	24.82	-0.10	0.250			
0.9086	58151.47	3.2760	3.2760	0.1247	24.82	-0.10	0.250			
0.9090	58175.36	3.2730	3.2730	0.1237	24.82	-0.10	0.250			
0.9094	58199.10	3.2700	3.2699	0.1221	24.83	-0.09	0.250			
0.9097	58222.47	3.2670	3.2670	0.1206	24.83	-0.09	0.250			
0.9101	58245.46	3.2640	3.2640	0.1190	24.83	-0.09	0.250			
0.9104	58268.12	3.2610	3.2609	0.1174	24.83	-0.09	0.250			
0.9108	58290.45	3.2580	3.2581	0.1160	24.84	-0.08	0.250			
0.9111	58312.61	3.2550	3.2550	0.1145	24.84	-0.08	0.250			
0.9115	58334.30	3.2520	3.2520	0.1138	24.84	-0.08	0.250			
0.9118	58355.68	3.2490	3.2490	0.1125	24.84	-0.08	0.250			
0.9121	58377.39	3.2460	3.2460	0.1112	24.85	-0.07	0.250			
0.9125	58398.75	3.2430	3.2429	0.1104	24.85	-0.07	0.250			
0.9128	58419.85	3.2400	3.2400	0.1092	24.85	-0.07	0.250			
0.9131	58440.82	3.2370	3.2371	0.1082	24.85	-0.07	0.250			
0.9135	58461.46	3.2340	3.2339	0.1069	24.85	-0.07	0.250			
0.9138	58481.94	3.2310	3.2310	0.1057	24.86	-0.06	0.250			
0.9141	58501.84	3.2280	3.2280	0.1043	24.86	-0.06	0.250			
0.9144	58521.80	3.2250	3.2250	0.1036	24.86	-0.06	0.250			
0.9147	58541.80	3.2220	3.2220	0.1026	24.86	-0.06	0.250			
0.9150	58561.37	3.2190	3.2189	0.1014	24.86	-0.06	0.250			
0.9153	58580.71	3.2160	3.2160	0.1002	24.86	-0.06	0.250			
0.9156	58599.83	3.2130	3.2130	0.0990	24.86	-0.06	0.250			
0.9159	58618.73	3.2100	3.2101	0.0979	24.87	-0.05	0.250			
0.9162	58637.41	3.2070	3.2069	0.0967	24.87	-0.05	0.250			
0.9165	58655.77	3.2040	3.2040	0.0954	24.87	-0.05	0.250			
0.9168	58674.00	3.2010	3.2011	0.0945	24.87	-0.05	0.250			
0.9171	58692.09	3.1980	3.1981	0.0936	24.87	-0.05	0.250			
