Ah_balance (normalized)	Ah_balance (mAh)	Voltage - fit (V)	Voltage -  interpolate (V)	dQ/dV (1/V)	Temperature (°C)	Temperature - diff (°C)	Current (C)	R_DC 0ms (mOhm)	R_DC 50ms (mOhm)	R_DC 50 ms PEC (mOhm)
0.0940	6013.07	4.0070	4.0064	-0.0438	6.00	0.01	-0.750			
0.0942	6026.29	4.0040	4.0036	-0.0796	6.00	0.01	-0.750			
0.0945	6045.68	4.0010	4.0006	-0.1088	6.00	0.01	-0.750			
0.0948	6069.16	3.9980	3.9980	-0.1358	6.00	0.01	-0.750			
0.0953	6098.22	3.9950	3.9951	-0.1602	6.00	0.01	-0.750			
0.0958	6131.51	3.9920	3.9922	-0.1845	5.99	0.00	-0.750			
0.0964	6170.82	3.9890	3.9889	-0.2098	5.99	0.00	-0.750			
0.0971	6212.79	3.9860	3.9861	-0.2325	5.99	0.00	-0.750			
0.0978	6259.39	3.9830	3.9829	-0.2542	5.99	0.00	-0.750			
0.0986	6310.65	3.9800	3.9800	-0.2754	5.99	-0.00	-0.750			
0.0995	6365.88	3.9770	3.9770	-0.2976	5.99	-0.00	-0.750			
0.1004	6425.30	3.9740	3.9741	-0.3165	5.99	-0.00	-0.750			
0.1014	6488.17	3.9710	3.9710	-0.3384	5.99	-0.00	-0.750			
0.1024	6554.78	3.9680	3.9681	-0.3597	5.98	-0.01	-0.750			
0.1035	6626.38	3.9650	3.9649	-0.3795	5.98	-0.01	-0.750			
0.1047	6700.54	3.9620	3.9621	-0.4005	5.98	-0.01	-0.750			
0.1059	6779.46	3.9590	3.9590	-0.4239	5.98	-0.01	-0.750			
0.1072	6863.41	3.9560	3.9561	-0.4429	5.98	-0.01	-0.750			
0.1086	6951.79	3.9530	3.9529	-0.4621	5.97	-0.02	-0.750			
0.1100	7041.74	3.9500	3.9500	-0.4783	5.97	-0.02	-0.750			
0.1115	7135.59	3.9470	3.9471	-0.4956	5.97	-0.02	-0.750			
0.1130	7232.59	3.9440	3.9440	-0.5124	5.97	-0.02	-0.750			
0.1146	7332.03	3.9410	3.9410	-0.5272	5.96	-0.03	-0.750			
0.1162	7434.57	3.9380	3.9380	-0.5403	5.96	-0.03	-0.750			
0.1178	7541.33	3.9350	3.9350	-0.5580	5.96	-0.03	-0.750			
0.1195	7650.79	3.9320	3.9320	-0.5689	5.96	-0.03	-0.750			
0.1213	7760.24	3.9290	3.9290	-0.5837	5.95	-0.04	-0.750			
0.1230	7874.10	3.9260	3.9257	-0.5934	5.95	-0.04	-0.750			
0.1248	7989.62	3.9230	3.9229	-0.6035	5.95	-0.04	-0.750			
0.1267	8106.00	3.9200	3.9199	-0.6163	5.95	-0.04	-0.750			
0.1285	8224.06	3.9170	3.9172	-0.6294	5.95	-0.04	-0.750			
0.1304	8344.82	3.9140	3.9141	-0.6340	5.95	-0.04	-0.750			
0.1324	8472.40	3.9110	3.9108	-0.6440	5.95	-0.04	-0.750			
0.1343	8596.19	3.9080	3.9078	-0.6453	5.95	-0.04	-0.750			
0.1363	8722.07	3.9050	3.9054	-0.6514	5.95	-0.04	-0.750			
0.1382	8846.63	3.9020	3.9019	-0.6495	5.95	-0.04	-0.750			
0.1402	8970.38	3.8990	3.8990	-0.6507	5.96	-0.03	-0.750			
0.1421	9095.27	3.8960	3.8961	-0.6565	5.96	-0.03	-0.750			
0.1441	9220.98	3.8930	3.8929	-0.6647	5.96	-0.03	-0.750			
0.1461	9348.92	3.8900	3.8900	-0.6704	5.97	-0.02	-0.750			
0.1481	9478.12	3.8870	3.8869	-0.6760	5.97	-0.02	-0.750			
0.1501	9609.29	3.8840	3.8841	-0.6765	5.97	-0.02	-0.750			
0.1522	9740.49	3.8810	3.8810	-0.6824	5.98	-0.01	-0.750			
0.1542	9871.93	3.8780	3.8781	-0.6857	5.98	-0.01	-0.750			
0.1563	10004.35	3.8750	3.8749	-0.6870	5.98	-0.01	-0.750			
0.1584	10135.36	3.8720	3.8719	-0.6884	5.99	-0.00	-0.750			
0.1604	10268.08	3.8690	3.8692	-0.6923	5.99	-0.00	-0.750			
0.1625	10402.67	3.8660	3.8658	-0.6924	5.99	0.00	-0.750			
0.1646	10535.44	3.8630	3.8630	-0.6941	6.00	0.01	-0.750			
0.1666	10665.51	3.8600	3.8601	-0.6934	6.00	0.01	-0.750			
0.1687	10799.95	3.8570	3.8570	-0.6951	6.00	0.01	-0.750			
0.1709	10935.32	3.8540	3.8539	-0.6995	6.01	0.02	-0.750			
0.1730	11069.41	3.8510	3.8511	-0.7008	6.01	0.02	-0.750			
0.1751	11205.44	3.8480	3.8481	-0.7013	6.01	0.02	-0.750			
0.1772	11341.18	3.8450	3.8449	-0.7002	6.02	0.03	-0.750			
0.1793	11472.74	3.8420	3.8420	-0.6974	6.02	0.03	-0.750			
0.1814	11606.41	3.8390	3.8390	-0.6995	6.02	0.03	-0.750			
0.1835	11742.09	3.8360	3.8360	-0.7039	6.03	0.04	-0.750			
0.1856	11876.33	3.8330	3.8330	-0.7030	6.03	0.04	-0.750			
0.1877	12011.76	3.8300	3.8300	-0.7066	6.04	0.05	-0.750			
0.1898	12148.52	3.8270	3.8270	-0.7102	6.04	0.05	-0.750			
0.1920	12284.89	3.8240	3.8239	-0.7171	6.05	0.06	-0.750			
0.1941	12423.18	3.8210	3.8209	-0.7130	6.06	0.07	-0.750			
0.1963	12561.19	3.8180	3.8180	-0.7157	6.06	0.07	-0.750			
0.1984	12699.23	3.8150	3.8154	-0.7142	6.07	0.08	-0.750			
0.2006	12837.33	3.8120	3.8118	-0.7102	6.07	0.08	-0.750			
0.2027	12972.08	3.8090	3.8090	-0.7085	6.08	0.09	-0.750			
0.2048	13105.61	3.8060	3.8061	-0.7084	6.08	0.09	-0.750			
0.2069	13243.33	3.8030	3.8029	-0.7144	6.08	0.09	-0.750			
0.2091	13380.85	3.8000	3.7999	-0.7161	6.09	0.10	-0.750			
0.2112	13517.25	3.7970	3.7972	-0.7144	6.09	0.10	-0.750			
0.2134	13654.87	3.7940	3.7939	-0.7173	6.10	0.11	-0.750			
0.2155	13792.20	3.7910	3.7911	-0.7264	6.10	0.11	-0.750			
0.2177	13931.75	3.7880	3.7879	-0.7229	6.11	0.12	-0.750			
0.2199	14072.26	3.7850	3.7849	-0.7302	6.11	0.12	-0.750			
0.2221	14212.99	3.7820	3.7818	-0.7307	6.12	0.13	-0.750			
0.2243	14352.85	3.7790	3.7792	-0.7349	6.12	0.13	-0.750			
0.2265	14494.48	3.7760	3.7758	-0.7366	6.13	0.14	-0.750			
0.2287	14634.59	3.7730	3.7730	-0.7414	6.13	0.14	-0.750			
0.2309	14775.90	3.7700	3.7700	-0.7408	6.14	0.15	-0.750			
0.2332	14923.07	3.7670	3.7669	-0.7479	6.14	0.15	-0.750			
0.2354	15066.92	3.7640	3.7640	-0.7503	6.15	0.16	-0.750			
0.2377	15211.34	3.7610	3.7609	-0.7511	6.15	0.16	-0.750			
0.2399	15350.59	3.7580	3.7580	-0.7625	6.16	0.17	-0.750			
0.2422	15500.48	3.7550	3.7549	-0.7614	6.16	0.17	-0.750			
0.2445	15645.63	3.7520	3.7520	-0.7623	6.17	0.18	-0.750			
0.2468	15795.32	3.7490	3.7488	-0.7731	6.18	0.19	-0.750			
0.2491	15944.62	3.7460	3.7463	-0.7759	6.18	0.19	-0.750			
0.2514	16091.60	3.7430	3.7429	-0.7805	6.19	0.20	-0.750			
0.2538	16242.94	3.7400	3.7399	-0.7839	6.19	0.20	-0.750			
0.2562	16394.04	3.7370	3.7370	-0.7936	6.20	0.21	-0.750			
0.2585	16545.29	3.7340	3.7340	-0.7923	6.20	0.21	-0.750			
0.2609	16698.38	3.7310	3.7314	-0.7922	6.21	0.22	-0.750			
0.2633	16849.09	3.7280	3.7279	-0.7953	6.22	0.23	-0.750			
0.2657	17002.13	3.7250	3.7250	-0.8061	6.22	0.23	-0.750			
0.2681	17157.17	3.7220	3.7219	-0.8122	6.23	0.24	-0.750			
0.2706	17315.67	3.7190	3.7188	-0.8195	6.24	0.25	-0.750			
0.2730	17473.35	3.7160	3.7164	-0.8221	6.25	0.26	-0.750			
0.2755	17632.28	3.7130	3.7129	-0.8260	6.25	0.26	-0.750			
0.2780	17789.79	3.7100	3.7098	-0.8376	6.26	0.27	-0.750			
0.2805	17949.25	3.7070	3.7070	-0.8436	6.26	0.27	-0.750			
0.2830	18109.58	3.7040	3.7040	-0.8476	6.27	0.28	-0.750			
0.2856	18278.13	3.7010	3.7011	-0.8611	6.27	0.28	-0.750			
0.2882	18445.27	3.6980	3.6980	-0.8634	6.27	0.28	-0.750			
0.2908	18610.46	3.6950	3.6950	-0.8712	6.28	0.29	-0.750			
0.2934	18777.63	3.6920	3.6920	-0.8762	6.28	0.29	-0.750			
0.2960	18944.71	3.6890	3.6889	-0.8770	6.29	0.30	-0.750			
0.2987	19115.50	3.6860	3.6861	-0.8882	6.29	0.30	-0.750			
0.3013	19285.95	3.6830	3.6830	-0.9023	6.29	0.30	-0.750			
0.3041	19461.80	3.6800	3.6800	-0.9101	6.30	0.31	-0.750			
0.3069	19638.68	3.6770	3.6769	-0.9122	6.30	0.31	-0.750			
0.3096	19813.49	3.6740	3.6739	-0.9139	6.31	0.32	-0.750			
0.3123	19989.31	3.6710	3.6711	-0.9209	6.31	0.32	-0.750			
0.3151	20166.21	3.6680	3.6679	-0.9250	6.32	0.33	-0.750			
0.3179	20342.43	3.6650	3.6649	-0.9286	6.32	0.33	-0.750			
0.3206	20519.28	3.6620	3.6620	-0.9331	6.33	0.34	-0.750			
0.3235	20701.32	3.6590	3.6591	-0.9492	6.33	0.34	-0.750			
0.3263	20886.28	3.6560	3.6560	-0.9632	6.33	0.34	-0.750			
0.3293	21072.12	3.6530	3.6529	-0.9698	6.33	0.34	-0.750			
0.3322	21257.92	3.6500	3.6500	-0.9773	6.34	0.35	-0.750			
0.3351	21448.11	3.6470	3.6470	-0.9852	6.34	0.35	-0.750			
0.3381	21638.36	3.6440	3.6440	-0.9979	6.34	0.35	-0.750			
0.3411	21831.56	3.6410	3.6410	-1.0022	6.35	0.36	-0.750			
0.3441	22024.09	3.6380	3.6381	-1.0079	6.36	0.37	-0.750			
0.3472	22218.24	3.6350	3.6349	-1.0113	6.37	0.38	-0.750			
0.3502	22414.26	3.6320	3.6320	-1.0178	6.37	0.38	-0.750			
0.3533	22610.32	3.6290	3.6290	-1.0289	6.37	0.38	-0.750			
0.3564	22809.13	3.6260	3.6260	-1.0324	6.37	0.38	-0.750			
0.3595	23006.47	3.6230	3.6229	-1.0407	6.37	0.38	-0.750			
0.3626	23208.84	3.6200	3.6199	-1.0581	6.37	0.38	-0.750			
0.3658	23412.35	3.6170	3.6169	-1.0663	6.38	0.39	-0.750			
0.3690	23618.99	3.6140	3.6139	-1.0743	6.38	0.39	-0.750			
0.3723	23824.88	3.6110	3.6110	-1.0764	6.39	0.40	-0.750			
0.3756	24036.11	3.6080	3.6081	-1.1018	6.39	0.40	-0.750			
0.3789	24251.35	3.6050	3.6049	-1.1014	6.39	0.40	-0.750			
0.3822	24460.50	3.6020	3.6019	-1.1093	6.39	0.40	-0.750			
0.3855	24674.20	3.5990	3.5993	-1.1091	6.39	0.40	-0.750			
0.3889	24886.69	3.5960	3.5959	-1.1419	6.40	0.41	-0.750			
0.3924	25111.33	3.5930	3.5930	-1.1449	6.41	0.42	-0.750			
0.3958	25333.37	3.5900	3.5898	-1.1449	6.42	0.43	-0.750			
0.3992	25551.76	3.5870	3.5872	-1.1502	6.43	0.44	-0.750			
0.4028	25779.55	3.5840	3.5839	-1.1597	6.43	0.44	-0.750	0.476	1.063	
0.4062	25998.40	3.5810	3.5808	-1.1554	6.43	0.44	-0.750			
0.4096	26213.38	3.5780	3.5781	-1.1545	6.43	0.44	-0.750			
0.4131	26438.23	3.5750	3.5751	-1.1798	6.43	0.44	-0.750			
0.4168	26674.47	3.5720	3.5718	-1.2080	6.43	0.44	-0.750			
0.4204	26906.99	3.5690	3.5690	-1.2146	6.43	0.44	-0.750			
0.4240	27138.58	3.5660	3.5662	-1.2353	6.43	0.44	-0.750			
0.4279	27382.41	3.5630	3.5629	-1.2483	6.44	0.45	-0.750			
0.4316	27624.13	3.5600	3.5599	-1.2511	6.44	0.45	-0.750			
0.4354	27866.30	3.5570	3.5570	-1.2378	6.45	0.46	-0.750			
0.4392	28106.99	3.5540	3.5540	-1.2362	6.45	0.46	-0.750			
0.4428	28339.91	3.5510	3.5511	-1.2293	6.45	0.46	-0.750			
0.4463	28565.55	3.5480	3.5479	-1.2446	6.45	0.46	-0.750			
0.4501	28805.21	3.5450	3.5449	-1.2542	6.45	0.46	-0.750			
0.4539	29049.78	3.5420	3.5419	-1.2760	6.46	0.47	-0.750			
0.4578	29298.45	3.5390	3.5390	-1.3061	6.47	0.48	-0.750			
0.4618	29554.83	3.5360	3.5363	-1.3375	6.48	0.49	-0.750			
0.4659	29817.06	3.5330	3.5328	-1.3583	6.48	0.49	-0.750			
0.4700	30078.85	3.5300	3.5299	-1.3616	6.49	0.50	-0.750			
0.4741	30340.06	3.5270	3.5273	-1.3693	6.49	0.50	-0.750			
0.4783	30610.71	3.5240	3.5239	-1.3928	6.50	0.51	-0.750			
0.4825	30878.36	3.5210	3.5209	-1.3919	6.50	0.51	-0.750			
0.4866	31141.68	3.5180	3.5182	-1.4005	6.51	0.52	-0.750			
0.4909	31416.65	3.5150	3.5149	-1.4180	6.52	0.53	-0.750			
0.4951	31687.31	3.5120	3.5119	-1.4199	6.52	0.53	-0.750			
0.4994	31959.84	3.5090	3.5092	-1.4456	6.53	0.54	-0.750			
0.5038	32242.73	3.5060	3.5059	-1.4557	6.54	0.55	-0.750			
0.5082	32522.14	3.5030	3.5029	-1.4518	6.55	0.56	-0.750			
0.5126	32804.27	3.5000	3.4998	-1.4378	6.55	0.56	-0.750			
0.5169	33080.43	3.4970	3.4972	-1.4503	6.57	0.58	-0.750			
0.5212	33355.91	3.4940	3.4939	-1.4507	6.58	0.59	-0.750			
0.5255	33629.34	3.4910	3.4909	-1.4353	6.59	0.60	-0.750			
0.5299	33910.72	3.4880	3.4879	-1.4470	6.60	0.61	-0.750			
0.5342	34189.84	3.4850	3.4848	-1.4587	6.60	0.61	-0.750			
0.5385	34465.96	3.4820	3.4819	-1.4720	6.61	0.62	-0.750			
0.5430	34754.77	3.4790	3.4788	-1.4718	6.62	0.63	-0.750			
0.5474	35032.45	3.4760	3.4760	-1.4717	6.63	0.64	-0.750			
0.5519	35320.06	3.4730	3.4729	-1.4639	6.64	0.65	-0.750			
0.5564	35611.00	3.4700	3.4698	-1.4699	6.66	0.67	-0.750			
0.5608	35892.13	3.4670	3.4673	-1.4618	6.67	0.68	-0.750			
0.5651	36168.87	3.4640	3.4638	-1.4537	6.68	0.69	-0.750			
0.5694	36441.85	3.4610	3.4610	-1.4494	6.70	0.71	-0.750			
0.5738	36725.82	3.4580	3.4584	-1.4534	6.71	0.72	-0.750			
0.5782	37006.59	3.4550	3.4552	-1.4489	6.73	0.74	-0.750			
0.5826	37285.07	3.4520	3.4519	-1.4341	6.74	0.75	-0.750			
0.5868	37557.14	3.4490	3.4492	-1.4238	6.75	0.76	-0.750			
0.5912	37834.72	3.4460	3.4459	-1.4088	6.77	0.78	-0.750			
0.5954	38102.51	3.4430	3.4429	-1.3795	6.79	0.80	-0.750			
0.5994	38364.76	3.4400	3.4402	-1.3769	6.81	0.82	-0.750			
0.6036	38630.42	3.4370	3.4368	-1.3668	6.83	0.84	-0.750			
0.6077	38889.70	3.4340	3.4337	-1.3468	6.84	0.85	-0.750			
0.6117	39145.70	3.4310	3.4315	-1.3174	6.85	0.86	-0.750			
0.6156	39401.30	3.4280	3.4278	-1.3064	6.86	0.87	-0.750			
0.6195	39649.08	3.4250	3.4249	-1.2832	6.88	0.89	-0.750			
0.6232	39881.78	3.4220	3.4221	-1.2421	6.89	0.90	-0.750			
0.6270	40130.39	3.4190	3.4189	-1.2372	6.91	0.92	-0.750			
0.6307	40367.45	3.4160	3.4159	-1.2147	6.92	0.93	-0.750			
0.6343	40597.74	3.4130	3.4130	-1.1928	6.94	0.95	-0.750			
0.6379	40825.84	3.4100	3.4099	-1.1785	6.96	0.97	-0.750			
0.6414	41050.24	3.4070	3.4068	-1.1456	6.97	0.98	-0.750			
0.6448	41268.56	3.4040	3.4039	-1.1110	6.99	1.00	-0.750			
0.6481	41478.08	3.4010	3.4013	-1.0847	7.00	1.01	-0.750			
0.6514	41686.65	3.3980	3.3979	-1.0662	7.02	1.03	-0.750			
0.6545	41885.93	3.3950	3.3949	-1.0328	7.03	1.04	-0.750			
0.6575	42080.47	3.3920	3.3919	-1.0066	7.05	1.06	-0.750			
0.6605	42273.49	3.3890	3.3889	-0.9856	7.07	1.08	-0.750			
0.6634	42458.20	3.3860	3.3859	-0.9674	7.08	1.09	-0.750			
0.6663	42643.67	3.3830	3.3830	-0.9417	7.10	1.11	-0.750			
0.6690	42818.80	3.3800	3.3799	-0.9135	7.11	1.12	-0.750			
0.6718	42992.09	3.3770	3.3770	-0.8858	7.12	1.13	-0.750			
0.6744	43162.38	3.3740	3.3741	-0.8692	7.13	1.14	-0.750			
0.6770	43325.54	3.3710	3.3709	-0.8542	7.15	1.16	-0.750			
0.6795	43488.53	3.3680	3.3680	-0.8317	7.16	1.17	-0.750			
0.6818	43636.22	3.3650	3.3650	-0.8319	7.17	1.18	-0.750			
0.6843	43798.19	3.3620	3.3620	-0.8473	7.18	1.19	-0.750			
0.6869	43963.36	3.3590	3.3588	-0.8446	7.20	1.21	-0.750			
0.6895	44130.93	3.3560	3.3557	-0.8343	7.21	1.22	-0.750			
0.6921	44297.12	3.3530	3.3535	-0.8150	7.23	1.24	-0.750			
0.6946	44453.91	3.3500	3.3501	-0.7766	7.24	1.25	-0.750			
0.6969	44601.26	3.3470	3.3467	-0.7335	7.26	1.27	-0.750			
0.6988	44725.53	3.3440	3.3442	-0.6709	7.27	1.28	-0.750			
0.7008	44852.29	3.3410	3.3409	-0.6492	7.28	1.29	-0.750			
0.7027	44974.40	3.3380	3.3380	-0.6341	7.30	1.31	-0.750			
0.7046	45092.61	3.3350	3.3350	-0.6164	7.31	1.32	-0.750			
0.7064	45209.04	3.3320	3.3320	-0.6071	7.32	1.33	-0.750			
0.7082	45324.62	3.3290	3.3290	-0.5976	7.33	1.34	-0.750			
0.7100	45438.03	3.3260	3.3260	-0.5917	7.34	1.35	-0.750			
0.7117	45550.99	3.3230	3.3230	-0.5841	7.35	1.36	-0.750			
