Ah_balance (normalized)	Ah_balance (mAh)	Voltage - fit (V)	Voltage -  interpolate (V)	dQ/dV (1/V)	Temperature (°C)	Temperature - diff (°C)	Current (C)	R_DC 0ms (mOhm)	R_DC 50ms (mOhm)	R_DC 50 ms PEC (mOhm)
0.0912	5837.57	4.0040	4.0034	-0.0494	5.99	0.01	-0.750			
0.0914	5851.20	4.0010	4.0005	-0.0853	5.99	0.01	-0.750			
0.0917	5871.30	3.9980	3.9978	-0.1155	5.99	0.01	-0.750			
0.0921	5896.77	3.9950	3.9949	-0.1428	5.99	0.01	-0.750			
0.0926	5926.75	3.9920	3.9921	-0.1695	5.99	0.01	-0.750			
0.0932	5961.91	3.9890	3.9891	-0.1951	5.99	0.01	-0.750			
0.0938	6003.05	3.9860	3.9860	-0.2208	5.99	0.01	-0.750			
0.0945	6048.53	3.9830	3.9830	-0.2419	5.99	0.01	-0.750			
0.0953	6096.77	3.9800	3.9799	-0.2639	5.99	0.01	-0.750			
0.0961	6149.40	3.9770	3.9771	-0.2872	5.98	0.00	-0.750			
0.0970	6206.69	3.9740	3.9740	-0.3102	5.98	0.00	-0.750			
0.0979	6268.31	3.9710	3.9709	-0.3334	5.98	0.00	-0.750			
0.0990	6334.50	3.9680	3.9680	-0.3561	5.98	0.00	-0.750			
0.1001	6405.26	3.9650	3.9651	-0.3790	5.98	0.00	-0.750			
0.1013	6481.65	3.9620	3.9620	-0.4021	5.98	0.00	-0.750			
0.1025	6560.61	3.9590	3.9589	-0.4219	5.98	-0.00	-0.750			
0.1038	6643.10	3.9560	3.9560	-0.4422	5.98	-0.00	-0.750			
0.1052	6730.02	3.9530	3.9531	-0.4631	5.98	-0.00	-0.750			
0.1066	6820.97	3.9500	3.9500	-0.4824	5.98	-0.00	-0.750			
0.1081	6916.02	3.9470	3.9469	-0.5031	5.97	-0.01	-0.750			
0.1096	7014.81	3.9440	3.9440	-0.5223	5.97	-0.01	-0.750			
0.1112	7118.35	3.9410	3.9410	-0.5387	5.97	-0.01	-0.750			
0.1129	7223.09	3.9380	3.9380	-0.5515	5.97	-0.01	-0.750			
0.1145	7330.46	3.9350	3.9351	-0.5654	5.97	-0.01	-0.750			
0.1163	7440.12	3.9320	3.9320	-0.5796	5.97	-0.01	-0.750			
0.1180	7552.67	3.9290	3.9289	-0.5907	5.97	-0.01	-0.750			
0.1198	7666.91	3.9260	3.9260	-0.6021	5.97	-0.01	-0.750			
0.1216	7784.60	3.9230	3.9231	-0.6147	5.96	-0.02	-0.750			
0.1235	7904.25	3.9200	3.9199	-0.6229	5.96	-0.02	-0.750			
0.1254	8025.44	3.9170	3.9170	-0.6307	5.96	-0.02	-0.750			
0.1273	8147.04	3.9140	3.9141	-0.6370	5.96	-0.02	-0.750			
0.1292	8269.76	3.9110	3.9110	-0.6428	5.96	-0.02	-0.750			
0.1312	8393.82	3.9080	3.9080	-0.6515	5.96	-0.02	-0.750			
0.1331	8519.54	3.9050	3.9050	-0.6579	5.97	-0.01	-0.750			
0.1351	8647.16	3.9020	3.9020	-0.6639	5.97	-0.01	-0.750			
0.1371	8776.40	3.8990	3.8990	-0.6707	5.97	-0.01	-0.750			
0.1392	8905.66	3.8960	3.8962	-0.6724	5.97	-0.01	-0.750			
0.1412	9034.98	3.8930	3.8930	-0.6745	5.97	-0.01	-0.750			
0.1432	9163.72	3.8900	3.8900	-0.6792	5.98	-0.00	-0.750			
0.1452	9293.91	3.8870	3.8870	-0.6822	5.98	-0.00	-0.750			
0.1473	9426.19	3.8840	3.8839	-0.6877	5.98	0.00	-0.750			
0.1493	9557.88	3.8810	3.8810	-0.6895	5.99	0.01	-0.750			
0.1514	9692.61	3.8780	3.8780	-0.6890	5.99	0.01	-0.750			
0.1535	9824.78	3.8750	3.8750	-0.6900	5.99	0.01	-0.750			
0.1556	9956.67	3.8720	3.8721	-0.6899	6.00	0.02	-0.750			
0.1576	10088.40	3.8690	3.8689	-0.6930	6.00	0.02	-0.750			
0.1597	10221.20	3.8660	3.8660	-0.6960	6.01	0.03	-0.750			
0.1618	10356.11	3.8630	3.8630	-0.6968	6.01	0.03	-0.750			
0.1639	10489.88	3.8600	3.8601	-0.6972	6.02	0.04	-0.750			
0.1660	10625.42	3.8570	3.8570	-0.7036	6.02	0.04	-0.750			
0.1681	10759.36	3.8540	3.8540	-0.7020	6.03	0.05	-0.750			
0.1702	10893.73	3.8510	3.8509	-0.7071	6.03	0.05	-0.750			
0.1724	11031.15	3.8480	3.8480	-0.7066	6.04	0.06	-0.750			
0.1745	11168.91	3.8450	3.8450	-0.7075	6.04	0.06	-0.750			
0.1766	11304.35	3.8420	3.8423	-0.7092	6.05	0.07	-0.750			
0.1787	11439.85	3.8390	3.8390	-0.7103	6.06	0.08	-0.750			
0.1809	11574.65	3.8360	3.8359	-0.7137	6.06	0.08	-0.750			
0.1830	11710.53	3.8330	3.8329	-0.7165	6.07	0.09	-0.750			
0.1852	11850.70	3.8300	3.8300	-0.7207	6.08	0.10	-0.750			
0.1873	11989.91	3.8270	3.8270	-0.7216	6.08	0.10	-0.750			
0.1895	12129.76	3.8240	3.8241	-0.7228	6.09	0.11	-0.750			
0.1917	12267.81	3.8210	3.8210	-0.7176	6.10	0.12	-0.750			
0.1938	12403.49	3.8180	3.8180	-0.7155	6.10	0.12	-0.750			
0.1959	12540.44	3.8150	3.8149	-0.7173	6.11	0.13	-0.750			
0.1981	12678.29	3.8120	3.8121	-0.7199	6.11	0.13	-0.750			
0.2003	12817.64	3.8090	3.8090	-0.7185	6.12	0.14	-0.750			
0.2024	12955.33	3.8060	3.8060	-0.7209	6.12	0.14	-0.750			
0.2046	13093.90	3.8030	3.8031	-0.7215	6.13	0.15	-0.750			
0.2068	13232.26	3.8000	3.7999	-0.7243	6.14	0.16	-0.750			
0.2089	13370.60	3.7970	3.7970	-0.7252	6.14	0.16	-0.750			
0.2111	13510.73	3.7940	3.7940	-0.7260	6.15	0.17	-0.750			
0.2133	13650.68	3.7910	3.7910	-0.7304	6.16	0.18	-0.750			
0.2155	13791.39	3.7880	3.7879	-0.7342	6.16	0.18	-0.750			
0.2177	13930.82	3.7850	3.7849	-0.7320	6.17	0.19	-0.750			
0.2199	14072.68	3.7820	3.7820	-0.7338	6.17	0.19	-0.750			
0.2221	14211.85	3.7790	3.7791	-0.7368	6.18	0.20	-0.750			
0.2243	14355.65	3.7760	3.7760	-0.7411	6.18	0.20	-0.750			
0.2265	14498.55	3.7730	3.7729	-0.7454	6.19	0.21	-0.750			
0.2288	14640.09	3.7700	3.7700	-0.7475	6.20	0.22	-0.750			
0.2310	14783.92	3.7670	3.7671	-0.7546	6.20	0.22	-0.750			
0.2333	14930.64	3.7640	3.7639	-0.7555	6.21	0.23	-0.750			
0.2356	15076.54	3.7610	3.7610	-0.7603	6.22	0.24	-0.750			
0.2378	15221.41	3.7580	3.7581	-0.7625	6.23	0.25	-0.750			
0.2401	15369.13	3.7550	3.7550	-0.7672	6.23	0.25	-0.750			
0.2424	15515.85	3.7520	3.7519	-0.7708	6.24	0.26	-0.750			
0.2448	15664.14	3.7490	3.7490	-0.7762	6.25	0.27	-0.750			
0.2471	15813.21	3.7460	3.7461	-0.7808	6.26	0.28	-0.750			
0.2495	15965.16	3.7430	3.7429	-0.7862	6.26	0.28	-0.750			
0.2518	16116.30	3.7400	3.7402	-0.7868	6.27	0.29	-0.750			
0.2542	16267.13	3.7370	3.7370	-0.7935	6.28	0.30	-0.750			
0.2566	16419.97	3.7340	3.7341	-0.8022	6.29	0.31	-0.750			
0.2590	16574.58	3.7310	3.7309	-0.8069	6.29	0.31	-0.750			
0.2614	16729.70	3.7280	3.7279	-0.8134	6.30	0.32	-0.750			
0.2639	16887.36	3.7250	3.7251	-0.8184	6.31	0.33	-0.750			
0.2663	17046.09	3.7220	3.7220	-0.8231	6.31	0.33	-0.750			
0.2688	17204.10	3.7190	3.7190	-0.8300	6.32	0.34	-0.750			
0.2713	17362.15	3.7160	3.7160	-0.8317	6.32	0.34	-0.750			
0.2738	17522.74	3.7130	3.7129	-0.8389	6.33	0.35	-0.750			
0.2763	17685.45	3.7100	3.7102	-0.8466	6.33	0.35	-0.750			
0.2789	17848.08	3.7070	3.7069	-0.8539	6.34	0.36	-0.750			
0.2815	18013.48	3.7040	3.7040	-0.8620	6.34	0.36	-0.750			
0.2841	18179.73	3.7010	3.7010	-0.8657	6.35	0.37	-0.750			
0.2866	18345.04	3.6980	3.6980	-0.8669	6.35	0.37	-0.750			
0.2893	18514.27	3.6950	3.6950	-0.8746	6.36	0.38	-0.750			
0.2919	18681.80	3.6920	3.6920	-0.8815	6.36	0.38	-0.750			
0.2946	18851.91	3.6890	3.6889	-0.8843	6.36	0.38	-0.750			
0.2972	19021.71	3.6860	3.6860	-0.8884	6.37	0.39	-0.750			
0.2999	19191.88	3.6830	3.6830	-0.8972	6.37	0.39	-0.750			
0.3026	19364.78	3.6800	3.6801	-0.9073	6.37	0.39	-0.750			
0.3053	19539.99	3.6770	3.6769	-0.9202	6.38	0.40	-0.750			
0.3081	19718.95	3.6740	3.6739	-0.9242	6.39	0.41	-0.750			
0.3109	19897.19	3.6710	3.6710	-0.9314	6.40	0.42	-0.750			
0.3137	20078.43	3.6680	3.6682	-0.9392	6.41	0.43	-0.750			
0.3165	20258.15	3.6650	3.6649	-0.9484	6.41	0.43	-0.750			
0.3194	20440.06	3.6620	3.6620	-0.9527	6.42	0.44	-0.750			
0.3222	20623.09	3.6590	3.6590	-0.9554	6.42	0.44	-0.750			
0.3251	20806.99	3.6560	3.6560	-0.9628	6.43	0.45	-0.750			
0.3281	20996.00	3.6530	3.6530	-0.9739	6.43	0.45	-0.750			
0.3310	21182.06	3.6500	3.6500	-0.9767	6.43	0.45	-0.750			
0.3339	21370.65	3.6470	3.6470	-0.9821	6.44	0.46	-0.750			
0.3369	21560.49	3.6440	3.6440	-0.9744	6.44	0.46	-0.750			
0.3398	21749.50	3.6410	3.6410	-0.9714	6.44	0.46	-0.750			
0.3427	21934.82	3.6380	3.6381	-0.9757	6.44	0.46	-0.750			
0.3456	22118.98	3.6350	3.6350	-0.9791	6.45	0.47	-0.750			
0.3485	22304.27	3.6320	3.6319	-0.9901	6.45	0.47	-0.750			
0.3515	22494.11	3.6290	3.6291	-1.0055	6.45	0.47	-0.750			
0.3545	22689.51	3.6260	3.6261	-1.0229	6.45	0.47	-0.750			
0.3577	22893.81	3.6230	3.6230	-1.0433	6.45	0.47	-0.750			
0.3608	23094.09	3.6200	3.6200	-1.0525	6.46	0.48	-0.750			
0.3640	23295.93	3.6170	3.6170	-1.0549	6.46	0.48	-0.750			
0.3672	23499.92	3.6140	3.6139	-1.0619	6.46	0.48	-0.750			
0.3704	23703.74	3.6110	3.6110	-1.0722	6.46	0.48	-0.750			
0.3736	23909.29	3.6080	3.6081	-1.0809	6.47	0.49	-0.750			
0.3768	24116.98	3.6050	3.6050	-1.0981	6.47	0.49	-0.750			
0.3804	24343.86	3.6020	3.6018	-1.0694	6.48	0.50	-0.750			
0.3836	24551.16	3.5990	3.5989	-1.0280	6.48	0.50	-0.750			
0.3866	24742.51	3.5960	3.5963	-1.0218	6.49	0.51	-0.750			
0.3895	24930.02	3.5930	3.5936	-0.9981	6.49	0.51	-0.750			
0.3924	25110.43	3.5900	3.5892	-1.0178	6.49	0.51	-0.750			
0.3952	25294.48	3.5870	3.5868	-1.0303	6.49	0.51	-0.750			
0.3985	25502.08	3.5840	3.5841	-1.0743	6.48	0.50	-0.750			
0.4019	25721.54	3.5810	3.5812	-1.1441	6.48	0.50	-0.750	0.501	1.060	
0.4055	25954.43	3.5780	3.5779	-1.1792	6.48	0.50	-0.750			
0.4091	26181.73	3.5750	3.5749	-1.1774	6.49	0.51	-0.750			
0.4126	26407.22	3.5720	3.5719	-1.1864	6.49	0.51	-0.750			
0.4161	26633.21	3.5690	3.5691	-1.2007	6.49	0.51	-0.750			
0.4198	26870.17	3.5660	3.5659	-1.2148	6.49	0.51	-0.750			
0.4235	27103.00	3.5630	3.5628	-1.2230	6.48	0.50	-0.750			
0.4271	27335.67	3.5600	3.5604	-1.2285	6.48	0.50	-0.750			
0.4309	27577.81	3.5570	3.5568	-1.2558	6.49	0.51	-0.750			
0.4347	27819.81	3.5540	3.5540	-1.2702	6.50	0.52	-0.750			
0.4385	28063.33	3.5510	3.5509	-1.2770	6.51	0.53	-0.750			
0.4424	28315.74	3.5480	3.5479	-1.2981	6.51	0.53	-0.750			
0.4463	28565.15	3.5450	3.5450	-1.3089	6.51	0.53	-0.750			
0.4503	28816.33	3.5420	3.5421	-1.3251	6.51	0.53	-0.750			
0.4543	29073.76	3.5390	3.5388	-1.3290	6.51	0.53	-0.750			
0.4583	29330.36	3.5360	3.5359	-1.3340	6.52	0.54	-0.750			
0.4623	29584.85	3.5330	3.5331	-1.3532	6.53	0.55	-0.750			
0.4664	29846.77	3.5300	3.5298	-1.3526	6.53	0.55	-0.750			
0.4705	30109.58	3.5270	3.5268	-1.3630	6.54	0.56	-0.750			
0.4745	30366.74	3.5240	3.5240	-1.3813	6.54	0.56	-0.750			
0.4787	30634.52	3.5210	3.5208	-1.3720	6.54	0.56	-0.750			
0.4830	30909.75	3.5180	3.5179	-1.3880	6.55	0.57	-0.750			
0.4871	31173.77	3.5150	3.5150	-1.3968	6.55	0.57	-0.750			
0.4913	31440.46	3.5120	3.5120	-1.3893	6.55	0.57	-0.750			
0.4955	31711.45	3.5090	3.5087	-1.3969	6.56	0.58	-0.750			
0.4996	31974.19	3.5060	3.5060	-1.4048	6.57	0.59	-0.750			
0.5038	32243.38	3.5030	3.5028	-1.4258	6.58	0.60	-0.750			
0.5082	32527.10	3.5000	3.4997	-1.4397	6.59	0.61	-0.750			
0.5126	32804.83	3.4970	3.4970	-1.4438	6.60	0.62	-0.750			
0.5169	33081.06	3.4940	3.4940	-1.4333	6.61	0.63	-0.750			
0.5214	33367.62	3.4910	3.4908	-1.4577	6.62	0.64	-0.750			
0.5257	33645.10	3.4880	3.4881	-1.4498	6.63	0.65	-0.750			
0.5299	33916.77	3.4850	3.4848	-1.4214	6.64	0.66	-0.750			
0.5342	34189.34	3.4820	3.4823	-1.4310	6.64	0.66	-0.750			
0.5387	34477.89	3.4790	3.4791	-1.4318	6.65	0.67	-0.750			
0.5429	34746.68	3.4760	3.4758	-1.4209	6.66	0.68	-0.750			
0.5471	35014.49	3.4730	3.4736	-1.4600	6.68	0.70	-0.750			
0.5515	35295.39	3.4700	3.4701	-1.4517	6.69	0.71	-0.750			
0.5559	35579.75	3.4670	3.4666	-1.4520	6.70	0.72	-0.750			
0.5603	35858.31	3.4640	3.4642	-1.4871	6.70	0.72	-0.750			
0.5648	36148.40	3.4610	3.4612	-1.4965	6.71	0.73	-0.750			
0.5695	36445.74	3.4580	3.4577	-1.4706	6.73	0.75	-0.750			
0.5737	36716.04	3.4550	3.4550	-1.4630	6.74	0.76	-0.750			
0.5781	36996.73	3.4520	3.4515	-1.4255	6.75	0.77	-0.750			
0.5825	37281.80	3.4490	3.4487	-1.4191	6.77	0.79	-0.750			
0.5867	37545.86	3.4460	3.4459	-1.3924	6.78	0.80	-0.750			
0.5907	37804.82	3.4430	3.4429	-1.3540	6.80	0.82	-0.750			
0.5947	38061.85	3.4400	3.4399	-1.3337	6.81	0.83	-0.750			
0.5988	38322.46	3.4370	3.4369	-1.3422	6.83	0.85	-0.750			
0.6028	38577.15	3.4340	3.4341	-1.3419	6.84	0.86	-0.750			
0.6069	38842.50	3.4310	3.4306	-1.3360	6.86	0.88	-0.750			
0.6109	39098.59	3.4280	3.4279	-1.3136	6.88	0.90	-0.750			
0.6148	39346.19	3.4250	3.4254	-1.2938	6.89	0.91	-0.750			
0.6187	39599.40	3.4220	3.4218	-1.2707	6.91	0.93	-0.750			
0.6225	39839.09	3.4190	3.4188	-1.2442	6.93	0.95	-0.750			
0.6260	40064.39	3.4160	3.4161	-1.2022	6.95	0.97	-0.750			
0.6297	40302.75	3.4130	3.4129	-1.2084	6.97	0.99	-0.750			
0.6334	40535.77	3.4100	3.4099	-1.1827	6.98	1.00	-0.750			
0.6368	40758.20	3.4070	3.4069	-1.1534	7.00	1.02	-0.750			
0.6402	40974.05	3.4040	3.4042	-1.1343	7.02	1.04	-0.750			
0.6437	41197.75	3.4010	3.4009	-1.1101	7.03	1.05	-0.750			
0.6470	41405.38	3.3980	3.3979	-1.0717	7.05	1.07	-0.750			
0.6501	41604.34	3.3950	3.3951	-1.0392	7.06	1.08	-0.750			
0.6532	41805.26	3.3920	3.3919	-1.0212	7.08	1.10	-0.750			
0.6562	41999.84	3.3890	3.3888	-1.0005	7.10	1.12	-0.750			
0.6592	42187.34	3.3860	3.3860	-0.9715	7.11	1.13	-0.750			
0.6620	42370.95	3.3830	3.3830	-0.9434	7.13	1.15	-0.750			
0.6649	42553.53	3.3800	3.3802	-0.9264	7.14	1.16	-0.750			
0.6676	42727.42	3.3770	3.3769	-0.9037	7.16	1.18	-0.750			
0.6703	42897.76	3.3740	3.3739	-0.8768	7.17	1.19	-0.750			
0.6728	43062.18	3.3710	3.3710	-0.8445	7.19	1.21	-0.750			
0.6754	43224.16	3.3680	3.3679	-0.8336	7.20	1.22	-0.750			
0.6779	43382.43	3.3650	3.3650	-0.8136	7.22	1.24	-0.750			
0.6802	43535.09	3.3620	3.3619	-0.7944	7.24	1.26	-0.750			
0.6826	43685.05	3.3590	3.3590	-0.7726	7.25	1.27	-0.750			
0.6849	43830.52	3.3560	3.3561	-0.7509	7.27	1.29	-0.750			
0.6871	43975.52	3.3530	3.3528	-0.7385	7.29	1.31	-0.750			
0.6893	44116.56	3.3500	3.3503	-0.7176	7.30	1.32	-0.750			
0.6914	44250.56	3.3470	3.3469	-0.6923	7.32	1.34	-0.750			
0.6934	44380.40	3.3440	3.3440	-0.6766	7.33	1.35	-0.750			
0.6954	44508.46	3.3410	3.3411	-0.6617	7.35	1.37	-0.750			
0.6974	44633.67	3.3380	3.3379	-0.6451	7.36	1.38	-0.750			
0.6993	44755.39	3.3350	3.3349	-0.6294	7.37	1.39	-0.750			
0.7012	44874.52	3.3320	3.3322	-0.6143	7.39	1.41	-0.750			
0.7030	44991.42	3.3290	3.3290	-0.6041	7.40	1.42	-0.750			
0.7048	45106.17	3.3260	3.3259	-0.5912	7.41	1.43	-0.750			
0.7065	45217.73	3.3230	3.3230	-0.5779	7.43	1.45	-0.750			
0.7082	45326.55	3.3200	3.3201	-0.5689	7.44	1.46	-0.750			
0.7099	45436.41	3.3170	3.3170	-0.5539	7.45	1.47	-0.750			
0.7116	45541.13	3.3140	3.3140	-0.5360	7.46	1.48	-0.750			
