Ah_balance (normalized)	Ah_balance (mAh)	Voltage - fit (V)	Voltage -  interpolate (V)	dQ/dV (1/V)	Temperature (°C)	Temperature - diff (°C)	Current (C)	R_DC 0ms (mOhm)	R_DC 50ms (mOhm)	R_DC 50 ms PEC (mOhm)
0.0934	5975.12	4.0030	4.0025	-0.0733	6.01	0.02	-0.750			
0.0936	5992.13	4.0000	3.9998	-0.1040	6.01	0.02	-0.750			
0.0940	6016.03	3.9970	3.9968	-0.1331	6.01	0.02	-0.750			
0.0945	6044.85	3.9940	3.9939	-0.1587	6.01	0.02	-0.750			
0.0950	6077.78	3.9910	3.9912	-0.1844	6.00	0.01	-0.750			
0.0956	6115.67	3.9880	3.9881	-0.2103	6.00	0.01	-0.750			
0.0962	6159.69	3.9850	3.9850	-0.2343	6.00	0.01	-0.750			
0.0970	6206.52	3.9820	3.9819	-0.2580	6.00	0.01	-0.750			
0.0978	6258.04	3.9790	3.9791	-0.2821	6.00	0.01	-0.750			
0.0987	6314.91	3.9760	3.9761	-0.3056	6.00	0.01	-0.750			
0.0996	6375.94	3.9730	3.9729	-0.3306	6.00	0.01	-0.750			
0.1007	6441.73	3.9700	3.9700	-0.3534	6.00	0.01	-0.750			
0.1017	6511.90	3.9670	3.9671	-0.3778	5.99	0.00	-0.750			
0.1029	6587.47	3.9640	3.9639	-0.4026	5.99	0.00	-0.750			
0.1042	6666.52	3.9610	3.9611	-0.4261	5.99	-0.00	-0.750			
0.1055	6751.10	3.9580	3.9581	-0.4473	5.99	-0.00	-0.750			
0.1069	6839.20	3.9550	3.9550	-0.4699	5.99	-0.00	-0.750			
0.1083	6931.80	3.9520	3.9521	-0.4910	5.98	-0.01	-0.750			
0.1098	7027.66	3.9490	3.9490	-0.5125	5.98	-0.01	-0.750			
0.1114	7128.21	3.9460	3.9460	-0.5306	5.98	-0.01	-0.750			
0.1130	7232.84	3.9430	3.9430	-0.5479	5.98	-0.01	-0.750			
0.1147	7339.61	3.9400	3.9400	-0.5646	5.97	-0.02	-0.750			
0.1164	7450.92	3.9370	3.9372	-0.5832	5.97	-0.02	-0.750			
0.1182	7564.06	3.9340	3.9340	-0.5958	5.97	-0.02	-0.750			
0.1200	7680.82	3.9310	3.9309	-0.6067	5.98	-0.01	-0.750			
0.1218	7797.91	3.9280	3.9281	-0.6190	5.98	-0.01	-0.750			
0.1237	7917.95	3.9250	3.9250	-0.6330	5.98	-0.01	-0.750			
0.1256	8040.77	3.9220	3.9220	-0.6422	5.98	-0.01	-0.750			
0.1276	8164.68	3.9190	3.9189	-0.6504	5.99	-0.00	-0.750			
0.1295	8290.59	3.9160	3.9160	-0.6599	5.99	0.00	-0.750			
0.1315	8418.94	3.9130	3.9131	-0.6715	6.00	0.01	-0.750			
0.1336	8549.29	3.9100	3.9099	-0.6786	6.01	0.02	-0.750			
0.1356	8680.05	3.9070	3.9070	-0.6821	6.01	0.02	-0.750			
0.1377	8811.63	3.9040	3.9040	-0.6915	6.02	0.03	-0.750			
0.1398	8945.37	3.9010	3.9010	-0.7005	6.02	0.03	-0.750			
0.1419	9080.74	3.8980	3.8979	-0.7033	6.03	0.04	-0.750			
0.1440	9216.29	3.8950	3.8950	-0.7054	6.04	0.05	-0.750			
0.1461	9352.13	3.8920	3.8921	-0.7083	6.05	0.06	-0.750			
0.1483	9488.83	3.8890	3.8890	-0.7115	6.05	0.06	-0.750			
0.1504	9625.57	3.8860	3.8860	-0.7129	6.06	0.07	-0.750			
0.1525	9761.70	3.8830	3.8829	-0.7123	6.07	0.08	-0.750			
0.1547	9898.26	3.8800	3.8801	-0.7167	6.07	0.08	-0.750			
0.1568	10037.03	3.8770	3.8770	-0.7214	6.08	0.09	-0.750			
0.1590	10175.72	3.8740	3.8739	-0.7274	6.09	0.10	-0.750			
0.1612	10315.63	3.8710	3.8710	-0.7272	6.09	0.10	-0.750			
0.1634	10456.88	3.8680	3.8680	-0.7312	6.10	0.11	-0.750			
0.1656	10598.51	3.8650	3.8650	-0.7335	6.11	0.12	-0.750			
0.1678	10738.98	3.8620	3.8620	-0.7346	6.11	0.12	-0.750			
0.1700	10878.68	3.8590	3.8590	-0.7315	6.12	0.13	-0.750			
0.1722	11019.10	3.8560	3.8560	-0.7345	6.13	0.14	-0.750			
0.1744	11158.99	3.8530	3.8530	-0.7363	6.14	0.15	-0.750			
0.1766	11303.13	3.8500	3.8500	-0.7400	6.14	0.15	-0.750			
0.1788	11445.12	3.8470	3.8471	-0.7397	6.15	0.16	-0.750			
0.1811	11587.92	3.8440	3.8440	-0.7385	6.16	0.17	-0.750			
0.1833	11730.08	3.8410	3.8410	-0.7319	6.16	0.17	-0.750			
0.1855	11868.92	3.8380	3.8380	-0.7356	6.17	0.18	-0.750			
0.1876	12009.17	3.8350	3.8350	-0.7377	6.18	0.19	-0.750			
0.1899	12150.77	3.8320	3.8319	-0.7394	6.19	0.20	-0.750			
0.1921	12293.72	3.8290	3.8291	-0.7410	6.19	0.20	-0.750			
0.1943	12436.19	3.8260	3.8260	-0.7449	6.20	0.21	-0.750			
0.1966	12579.80	3.8230	3.8230	-0.7514	6.21	0.22	-0.750			
0.1988	12723.90	3.8200	3.8199	-0.7492	6.23	0.24	-0.750			
0.2011	12869.54	3.8170	3.8170	-0.7512	6.24	0.25	-0.750			
0.2033	13014.34	3.8140	3.8140	-0.7525	6.25	0.26	-0.750			
0.2056	13160.09	3.8110	3.8110	-0.7506	6.26	0.27	-0.750			
0.2079	13303.64	3.8080	3.8080	-0.7481	6.27	0.28	-0.750			
0.2101	13445.88	3.8050	3.8050	-0.7477	6.27	0.28	-0.750			
0.2123	13589.29	3.8020	3.8019	-0.7471	6.28	0.29	-0.750			
0.2146	13733.64	3.7990	3.7989	-0.7487	6.29	0.30	-0.750			
0.2168	13877.28	3.7960	3.7961	-0.7500	6.30	0.31	-0.750			
0.2191	14021.36	3.7930	3.7930	-0.7531	6.31	0.32	-0.750			
0.2214	14166.58	3.7900	3.7899	-0.7559	6.32	0.33	-0.750			
0.2236	14310.40	3.7870	3.7871	-0.7543	6.33	0.34	-0.750			
0.2259	14457.30	3.7840	3.7840	-0.7567	6.34	0.35	-0.750			
0.2281	14601.46	3.7810	3.7811	-0.7591	6.35	0.36	-0.750			
0.2304	14747.44	3.7780	3.7780	-0.7607	6.35	0.36	-0.750			
0.2327	14892.34	3.7750	3.7750	-0.7657	6.36	0.37	-0.750			
0.2350	15040.12	3.7720	3.7719	-0.7668	6.37	0.38	-0.750			
0.2373	15188.67	3.7690	3.7690	-0.7709	6.38	0.39	-0.750			
0.2397	15337.63	3.7660	3.7660	-0.7730	6.38	0.39	-0.750			
0.2420	15487.37	3.7630	3.7631	-0.7759	6.39	0.40	-0.750			
0.2443	15635.27	3.7600	3.7600	-0.7771	6.40	0.41	-0.750			
0.2466	15784.15	3.7570	3.7570	-0.7801	6.42	0.43	-0.750			
0.2490	15933.70	3.7540	3.7540	-0.7824	6.43	0.44	-0.750			
0.2513	16084.55	3.7510	3.7510	-0.7886	6.44	0.45	-0.750			
0.2537	16236.57	3.7480	3.7480	-0.7942	6.45	0.46	-0.750			
0.2561	16389.37	3.7450	3.7449	-0.7973	6.46	0.47	-0.750			
0.2585	16542.31	3.7420	3.7420	-0.8036	6.46	0.47	-0.750			
0.2609	16696.73	3.7390	3.7390	-0.8066	6.47	0.48	-0.750			
0.2633	16852.51	3.7360	3.7359	-0.8106	6.48	0.49	-0.750			
0.2658	17009.93	3.7330	3.7330	-0.8139	6.49	0.50	-0.750			
0.2682	17165.56	3.7300	3.7300	-0.8172	6.50	0.51	-0.750			
0.2706	17321.46	3.7270	3.7270	-0.8265	6.51	0.52	-0.750			
0.2732	17481.67	3.7240	3.7240	-0.8319	6.52	0.53	-0.750			
0.2756	17640.82	3.7210	3.7209	-0.8377	6.53	0.54	-0.750			
0.2782	17804.15	3.7180	3.7180	-0.8474	6.54	0.55	-0.750			
0.2807	17967.95	3.7150	3.7150	-0.8480	6.54	0.55	-0.750			
0.2833	18131.07	3.7120	3.7120	-0.8567	6.55	0.56	-0.750			
0.2859	18294.65	3.7090	3.7091	-0.8615	6.56	0.57	-0.750			
0.2884	18458.33	3.7060	3.7058	-0.8656	6.56	0.57	-0.750			
0.2911	18627.44	3.7030	3.7031	-0.8780	6.57	0.58	-0.750			
0.2937	18796.32	3.7000	3.7000	-0.8828	6.58	0.59	-0.750			
0.2964	18968.34	3.6970	3.6969	-0.8899	6.59	0.60	-0.750			
0.2991	19139.67	3.6940	3.6940	-0.8968	6.59	0.60	-0.750			
0.3017	19308.74	3.6910	3.6910	-0.9019	6.60	0.61	-0.750			
0.3044	19484.10	3.6880	3.6880	-0.9131	6.61	0.62	-0.750			
0.3072	19661.40	3.6850	3.6849	-0.9233	6.62	0.63	-0.750			
0.3100	19839.12	3.6820	3.6820	-0.9346	6.63	0.64	-0.750			
0.3128	20020.27	3.6790	3.6791	-0.9428	6.64	0.65	-0.750			
0.3157	20203.18	3.6760	3.6760	-0.9515	6.65	0.66	-0.750			
0.3185	20384.86	3.6730	3.6729	-0.9627	6.66	0.67	-0.750			
0.3214	20570.37	3.6700	3.6700	-0.9666	6.66	0.67	-0.750			
0.3243	20757.57	3.6670	3.6670	-0.9735	6.67	0.68	-0.750			
0.3273	20946.06	3.6640	3.6640	-0.9793	6.68	0.69	-0.750			
0.3302	21135.39	3.6610	3.6610	-0.9849	6.68	0.69	-0.750			
0.3332	21324.69	3.6580	3.6580	-0.9985	6.69	0.70	-0.750			
0.3362	21516.14	3.6550	3.6550	-1.0048	6.70	0.71	-0.750			
0.3392	21709.21	3.6520	3.6519	-1.0122	6.70	0.71	-0.750			
0.3423	21905.59	3.6490	3.6491	-1.0292	6.71	0.72	-0.750			
0.3454	22104.94	3.6460	3.6460	-1.0375	6.72	0.73	-0.750			
0.3485	22304.91	3.6430	3.6430	-1.0445	6.72	0.73	-0.750			
0.3516	22505.48	3.6400	3.6400	-1.0505	6.73	0.74	-0.750			
0.3548	22707.94	3.6370	3.6371	-1.0685	6.73	0.74	-0.750			
0.3581	22916.28	3.6340	3.6340	-1.0753	6.73	0.74	-0.750			
0.3613	23123.68	3.6310	3.6310	-1.0813	6.73	0.74	-0.750			
0.3645	23330.45	3.6280	3.6280	-1.0871	6.73	0.74	-0.750			
0.3678	23541.78	3.6250	3.6249	-1.1024	6.73	0.74	-0.750			
0.3712	23754.26	3.6220	3.6219	-1.1079	6.74	0.75	-0.750			
0.3745	23966.56	3.6190	3.6190	-1.1157	6.74	0.75	-0.750			
0.3778	24180.86	3.6160	3.6161	-1.1256	6.75	0.76	-0.750			
0.3813	24401.41	3.6130	3.6129	-1.1405	6.75	0.76	-0.750			
0.3847	24620.00	3.6100	3.6099	-1.1476	6.76	0.77	-0.750			
0.3881	24840.51	3.6070	3.6070	-1.1559	6.76	0.77	-0.750			
0.3916	25061.73	3.6040	3.6041	-1.1691	6.77	0.78	-0.750			
0.3952	25290.92	3.6010	3.6009	-1.1813	6.77	0.78	-0.750			
0.3987	25517.23	3.5980	3.5980	-1.1904	6.78	0.79	-0.750			
0.4023	25747.31	3.5950	3.5949	-1.1963	6.78	0.79	-0.750			
0.4059	25979.09	3.5920	3.5920	-1.2171	6.78	0.79	-0.750	0.463	1.043	
0.4096	26213.63	3.5890	3.5890	-1.2213	6.78	0.79	-0.750			
0.4133	26449.25	3.5860	3.5860	-1.2292	6.79	0.80	-0.750			
0.4170	26687.84	3.5830	3.5831	-1.2295	6.79	0.80	-0.750			
0.4208	26929.26	3.5800	3.5800	-1.2304	6.80	0.81	-0.750			
0.4244	27161.99	3.5770	3.5770	-1.2216	6.80	0.81	-0.750			
0.4280	27393.47	3.5740	3.5742	-1.2262	6.81	0.82	-0.750			
0.4317	27626.66	3.5710	3.5708	-1.2461	6.81	0.82	-0.750			
0.4354	27865.95	3.5680	3.5678	-1.2683	6.81	0.82	-0.750			
0.4392	28107.61	3.5650	3.5650	-1.2977	6.81	0.82	-0.750			
0.4432	28362.88	3.5620	3.5620	-1.3249	6.81	0.82	-0.750			
0.4473	28627.12	3.5590	3.5589	-1.3573	6.82	0.83	-0.750			
0.4514	28889.58	3.5560	3.5559	-1.3760	6.83	0.84	-0.750			
0.4555	29152.87	3.5530	3.5531	-1.3803	6.83	0.84	-0.750			
0.4597	29423.19	3.5500	3.5500	-1.4013	6.83	0.84	-0.750			
0.4639	29690.81	3.5470	3.5470	-1.4175	6.83	0.84	-0.750			
0.4682	29963.21	3.5440	3.5439	-1.4207	6.83	0.84	-0.750			
0.4725	30241.06	3.5410	3.5410	-1.4390	6.83	0.84	-0.750			
0.4768	30517.72	3.5380	3.5380	-1.4553	6.83	0.84	-0.750			
0.4812	30795.67	3.5350	3.5350	-1.4751	6.83	0.84	-0.750			
0.4857	31086.94	3.5320	3.5319	-1.4827	6.83	0.84	-0.750			
0.4902	31372.11	3.5290	3.5289	-1.4941	6.83	0.84	-0.750			
0.4947	31659.59	3.5260	3.5260	-1.5002	6.84	0.85	-0.750			
0.4992	31951.28	3.5230	3.5230	-1.5080	6.84	0.85	-0.750			
0.5038	32241.89	3.5200	3.5203	-1.5143	6.85	0.86	-0.750			
0.5083	32528.69	3.5170	3.5168	-1.5187	6.85	0.86	-0.750			
0.5128	32820.78	3.5140	3.5141	-1.5248	6.85	0.86	-0.750			
0.5175	33120.45	3.5110	3.5111	-1.5289	6.85	0.86	-0.750			
0.5221	33415.34	3.5080	3.5079	-1.5410	6.86	0.87	-0.750			
0.5267	33709.73	3.5050	3.5050	-1.5412	6.87	0.88	-0.750			
0.5313	34002.50	3.5020	3.5020	-1.5334	6.88	0.89	-0.750			
0.5359	34299.86	3.4990	3.4990	-1.5478	6.89	0.90	-0.750			
0.5406	34595.50	3.4960	3.4960	-1.5409	6.89	0.90	-0.750			
0.5452	34893.27	3.4930	3.4930	-1.5416	6.90	0.91	-0.750			
0.5499	35192.05	3.4900	3.4898	-1.5378	6.91	0.92	-0.750			
0.5544	35483.66	3.4870	3.4871	-1.5341	6.92	0.93	-0.750			
0.5591	35779.52	3.4840	3.4838	-1.5293	6.93	0.94	-0.750			
0.5637	36075.93	3.4810	3.4810	-1.5286	6.94	0.95	-0.750			
0.5682	36366.96	3.4780	3.4779	-1.5125	6.95	0.96	-0.750			
0.5728	36660.46	3.4750	3.4751	-1.5165	6.96	0.97	-0.750			
0.5774	36950.58	3.4720	3.4719	-1.5085	6.97	0.98	-0.750			
0.5818	37237.35	3.4690	3.4689	-1.4906	6.97	0.98	-0.750			
0.5863	37525.95	3.4660	3.4659	-1.4800	6.98	0.99	-0.750			
0.5907	37807.12	3.4630	3.4631	-1.4743	6.99	1.00	-0.750			
0.5951	38086.95	3.4600	3.4600	-1.4615	7.00	1.01	-0.750			
0.5995	38368.02	3.4570	3.4568	-1.4586	7.02	1.03	-0.750			
0.6039	38646.93	3.4540	3.4542	-1.4558	7.03	1.04	-0.750			
0.6082	38927.57	3.4510	3.4510	-1.4392	7.04	1.05	-0.750			
0.6126	39209.40	3.4480	3.4479	-1.4319	7.06	1.07	-0.750			
0.6169	39483.42	3.4450	3.4452	-1.4146	7.07	1.08	-0.750			
0.6211	39752.74	3.4420	3.4419	-1.3880	7.09	1.10	-0.750			
0.6253	40016.19	3.4390	3.4389	-1.3594	7.10	1.11	-0.750			
0.6292	40271.94	3.4360	3.4362	-1.3372	7.11	1.12	-0.750			
0.6333	40530.95	3.4330	3.4329	-1.3206	7.12	1.13	-0.750			
0.6372	40781.47	3.4300	3.4299	-1.2940	7.14	1.15	-0.750			
0.6410	41023.85	3.4270	3.4272	-1.2734	7.15	1.16	-0.750			
0.6448	41269.48	3.4240	3.4239	-1.2550	7.16	1.17	-0.750			
0.6486	41508.81	3.4210	3.4210	-1.2271	7.18	1.19	-0.750			
0.6522	41740.37	3.4180	3.4180	-1.2002	7.19	1.20	-0.750			
0.6557	41967.38	3.4150	3.4150	-1.1749	7.21	1.22	-0.750			
0.6593	42194.27	3.4120	3.4119	-1.1502	7.22	1.23	-0.750			
0.6627	42410.87	3.4090	3.4090	-1.1223	7.24	1.25	-0.750			
0.6660	42622.34	3.4060	3.4061	-1.0923	7.25	1.26	-0.750			
0.6692	42831.68	3.4030	3.4030	-1.0700	7.26	1.27	-0.750			
0.6724	43034.73	3.4000	3.4000	-1.0431	7.28	1.29	-0.750			
0.6755	43231.50	3.3970	3.3970	-1.0147	7.29	1.30	-0.750			
0.6785	43423.62	3.3940	3.3939	-0.9861	7.31	1.32	-0.750			
0.6814	43610.41	3.3910	3.3910	-0.9696	7.32	1.33	-0.750			
0.6843	43794.75	3.3880	3.3880	-0.9385	7.34	1.35	-0.750			
0.6871	43972.78	3.3850	3.3849	-0.9116	7.35	1.36	-0.750			
0.6898	44144.35	3.3820	3.3820	-0.8875	7.36	1.37	-0.750			
0.6924	44312.95	3.3790	3.3791	-0.8634	7.38	1.39	-0.750			
0.6949	44475.99	3.3760	3.3759	-0.8417	7.39	1.40	-0.750			
0.6974	44635.29	3.3730	3.3729	-0.8152	7.40	1.41	-0.750			
0.6998	44786.99	3.3700	3.3701	-0.7889	7.41	1.42	-0.750			
0.7022	44938.87	3.3670	3.3671	-0.7755	7.42	1.43	-0.750			
0.7045	45085.39	3.3640	3.3640	-0.7536	7.43	1.44	-0.750			
0.7067	45227.34	3.3610	3.3609	-0.7325	7.45	1.46	-0.750			
0.7088	45364.98	3.3580	3.3581	-0.7175	7.46	1.47	-0.750			
0.7110	45501.94	3.3550	3.3550	-0.6989	7.48	1.49	-0.750			
0.7131	45635.96	3.3520	3.3519	-0.6852	7.49	1.50	-0.750			
0.7151	45765.21	3.3490	3.3490	-0.6664	7.50	1.51	-0.750			
0.7170	45890.77	3.3460	3.3460	-0.6489	7.51	1.52	-0.750			
0.7190	46014.28	3.3430	3.3429	-0.6296	7.53	1.54	-0.750			
0.7208	46133.24	3.3400	3.3400	-0.6096	7.54	1.55	-0.750			
