Ah_balance (normalized)	Ah_balance (mAh)	Voltage - fit (V)	Voltage -  interpolate (V)	dQ/dV (1/V)	Temperature (°C)	Temperature - diff (°C)	Current (C)	R_DC 0ms (mOhm)	R_DC 50ms (mOhm)	R_DC 50 ms PEC (mOhm)
0.1815	11618.21	4.0810	4.0810	0.7599	7.19	1.20	0.750			
0.1838	11765.24	4.0780	4.0780	0.7687	7.19	1.20	0.750			
0.1861	11912.81	4.0750	4.0750	0.7689	7.18	1.19	0.750			
0.1884	12060.13	4.0720	4.0721	0.7691	7.18	1.19	0.750			
0.1907	12207.14	4.0690	4.0691	0.7732	7.17	1.18	0.750			
0.1930	12354.33	4.0660	4.0660	0.7770	7.17	1.18	0.750			
0.1954	12504.93	4.0630	4.0629	0.7828	7.16	1.17	0.750			
0.1977	12654.92	4.0600	4.0601	0.7876	7.15	1.16	0.750			
0.2001	12808.17	4.0570	4.0571	0.7891	7.15	1.16	0.750			
0.2025	12961.61	4.0540	4.0540	0.7929	7.15	1.16	0.750			
0.2049	13114.73	4.0510	4.0510	0.7869	7.14	1.15	0.750			
0.2073	13264.37	4.0480	4.0481	0.7862	7.14	1.15	0.750			
0.2096	13412.11	4.0450	4.0450	0.7875	7.13	1.14	0.750			
0.2119	13564.46	4.0420	4.0418	0.7972	7.13	1.14	0.750			
0.2143	13717.22	4.0390	4.0390	0.8000	7.13	1.14	0.750			
0.2168	13874.27	4.0360	4.0360	0.8001	7.12	1.13	0.750			
0.2192	14029.61	4.0330	4.0331	0.8126	7.12	1.13	0.750			
0.2217	14186.95	4.0300	4.0300	0.8173	7.11	1.12	0.750			
0.2241	14340.94	4.0270	4.0268	0.8165	7.11	1.12	0.750			
0.2265	14497.98	4.0240	4.0242	0.8219	7.11	1.12	0.750			
0.2290	14657.83	4.0210	4.0210	0.8197	7.10	1.11	0.750			
0.2315	14815.05	4.0180	4.0180	0.8254	7.09	1.10	0.750			
0.2340	14975.06	4.0150	4.0150	0.8292	7.09	1.10	0.750			
0.2364	15132.28	4.0120	4.0120	0.8264	7.08	1.09	0.750			
0.2389	15291.57	4.0090	4.0090	0.8295	7.08	1.09	0.750			
0.2414	15450.07	4.0060	4.0061	0.8330	7.07	1.08	0.750			
0.2439	15611.32	4.0030	4.0030	0.8374	7.06	1.07	0.750			
0.2464	15772.39	4.0000	4.0000	0.8413	7.06	1.07	0.750			
0.2490	15934.48	3.9970	3.9970	0.8466	7.05	1.06	0.750			
0.2515	16097.51	3.9940	3.9940	0.8525	7.05	1.06	0.750			
0.2541	16262.77	3.9910	3.9910	0.8537	7.04	1.05	0.750			
0.2567	16427.00	3.9880	3.9880	0.8578	7.04	1.05	0.750			
0.2592	16590.98	3.9850	3.9851	0.8586	7.03	1.04	0.750			
0.2618	16756.62	3.9820	3.9819	0.8665	7.03	1.04	0.750			
0.2644	16922.21	3.9790	3.9790	0.8685	7.02	1.03	0.750			
0.2670	17090.54	3.9760	3.9760	0.8707	7.01	1.02	0.750			
0.2697	17257.68	3.9730	3.9731	0.8773	7.01	1.02	0.750			
0.2723	17427.45	3.9700	3.9700	0.8821	7.00	1.01	0.750			
0.2749	17595.56	3.9670	3.9670	0.8858	6.99	1.00	0.750			
0.2776	17766.38	3.9640	3.9640	0.8863	6.99	1.00	0.750			
0.2803	17936.25	3.9610	3.9611	0.8907	6.98	0.99	0.750			
0.2830	18109.16	3.9580	3.9580	0.8963	6.98	0.99	0.750			
0.2856	18279.90	3.9550	3.9551	0.9009	6.97	0.98	0.750			
0.2883	18453.14	3.9520	3.9519	0.9075	6.97	0.98	0.750			
0.2911	18629.01	3.9490	3.9490	0.9080	6.96	0.97	0.750			
0.2938	18803.07	3.9460	3.9460	0.9123	6.95	0.96	0.750			
0.2966	18979.52	3.9430	3.9431	0.9214	6.95	0.96	0.750			
0.2993	19154.92	3.9400	3.9398	0.9252	6.94	0.95	0.750			
0.3021	19333.99	3.9370	3.9371	0.9274	6.93	0.94	0.750			
0.3049	19510.51	3.9340	3.9340	0.9394	6.92	0.93	0.750			
0.3077	19692.33	3.9310	3.9310	0.9547	6.91	0.92	0.750			
0.3106	19877.59	3.9280	3.9281	0.9556	6.91	0.92	0.750			
0.3135	20064.02	3.9250	3.9250	0.9640	6.90	0.91	0.750			
0.3164	20249.72	3.9220	3.9221	0.9645	6.89	0.90	0.750			
0.3193	20433.57	3.9190	3.9191	0.9716	6.88	0.89	0.750			
0.3222	20618.94	3.9160	3.9160	0.9840	6.88	0.89	0.750			
0.3251	20806.46	3.9130	3.9127	0.9911	6.87	0.88	0.750			
0.3281	20998.57	3.9100	3.9101	0.9976	6.86	0.87	0.750			
0.3311	21192.46	3.9070	3.9071	1.0123	6.85	0.86	0.750			
0.3342	21390.71	3.9040	3.9041	1.0269	6.85	0.86	0.750			
0.3374	21590.48	3.9010	3.9007	1.0373	6.84	0.85	0.750			
0.3404	21782.99	3.8980	3.8980	1.0353	6.83	0.84	0.750			
0.3435	21982.71	3.8950	3.8950	1.0520	6.83	0.84	0.750			
0.3467	22187.76	3.8920	3.8921	1.0661	6.82	0.83	0.750			
0.3499	22396.06	3.8890	3.8886	1.0725	6.81	0.82	0.750			
0.3531	22600.04	3.8860	3.8861	1.0848	6.80	0.81	0.750			
0.3564	22809.56	3.8830	3.8831	1.0980	6.79	0.80	0.750			
0.3597	23021.21	3.8800	3.8800	1.1166	6.78	0.79	0.750			
0.3631	23236.47	3.8770	3.8770	1.1148	6.77	0.78	0.750			
0.3665	23452.96	3.8740	3.8741	1.1370	6.76	0.77	0.750			
0.3699	23673.96	3.8710	3.8711	1.1576	6.75	0.76	0.750			
0.3734	23897.08	3.8680	3.8680	1.1754	6.73	0.74	0.750			
0.3769	24122.47	3.8650	3.8650	1.1799	6.73	0.74	0.750			
0.3805	24350.59	3.8620	3.8621	1.1972	6.72	0.73	0.750			
0.3841	24581.20	3.8590	3.8591	1.2150	6.72	0.73	0.750			
0.3878	24819.35	3.8560	3.8561	1.2315	6.71	0.72	0.750			
0.3914	25052.13	3.8530	3.8530	1.2495	6.70	0.71	0.750			
0.3953	25298.31	3.8500	3.8500	1.2493	6.68	0.69	0.750			
0.3990	25535.97	3.8470	3.8469	1.2813	6.67	0.68	0.750			
0.4028	25777.82	3.8440	3.8442	1.3159	6.66	0.67	0.750			
0.4068	26034.99	3.8410	3.8410	1.3600	6.65	0.66	0.750			
0.4109	26300.36	3.8380	3.8389	1.3910	6.63	0.64	0.750	0.385	0.925	
0.4152	26572.35	3.8350	3.8353	1.4308	6.62	0.63	0.750			
0.4196	26854.66	3.8320	3.8322	1.4643	6.61	0.62	0.750			
0.4242	27146.11	3.8290	3.8288	1.4822	6.59	0.60	0.750			
0.4285	27426.40	3.8260	3.8261	1.4757	6.58	0.59	0.750			
0.4330	27710.77	3.8230	3.8231	1.5070	6.56	0.57	0.750			
0.4375	28003.18	3.8200	3.8198	1.5343	6.55	0.56	0.750			
0.4421	28297.49	3.8170	3.8170	1.5559	6.53	0.54	0.750			
0.4469	28602.73	3.8140	3.8141	1.5773	6.52	0.53	0.750			
0.4517	28908.64	3.8110	3.8112	1.6166	6.50	0.51	0.750			
0.4565	29217.65	3.8080	3.8080	1.6500	6.49	0.50	0.750			
0.4616	29540.70	3.8050	3.8048	1.6752	6.47	0.48	0.750			
0.4667	29868.82	3.8020	3.8021	1.7261	6.46	0.47	0.750			
0.4719	30199.01	3.7990	3.7993	1.7451	6.44	0.45	0.750			
0.4772	30542.73	3.7960	3.7958	1.7742	6.42	0.43	0.750			
0.4825	30879.87	3.7930	3.7930	1.8113	6.41	0.42	0.750			
0.4880	31231.91	3.7900	3.7903	1.8281	6.39	0.40	0.750			
0.4936	31593.56	3.7870	3.7869	1.8684	6.37	0.38	0.750			
0.4993	31952.82	3.7840	3.7839	1.8765	6.35	0.36	0.750			
0.5049	32316.72	3.7810	3.7809	1.9135	6.33	0.34	0.750			
0.5106	32679.19	3.7780	3.7781	1.9050	6.32	0.33	0.750			
0.5164	33051.32	3.7750	3.7752	1.9548	6.30	0.31	0.750			
0.5223	33427.33	3.7720	3.7724	1.9965	6.28	0.29	0.750			
0.5283	33812.49	3.7690	3.7689	2.0309	6.26	0.27	0.750			
0.5347	34219.96	3.7660	3.7661	2.0634	6.24	0.25	0.750			
0.5407	34605.58	3.7630	3.7629	2.0707	6.22	0.23	0.750			
0.5469	35002.24	3.7600	3.7602	2.0466	6.20	0.21	0.750			
0.5531	35395.87	3.7570	3.7568	2.0804	6.18	0.19	0.750			
0.5592	35789.21	3.7540	3.7537	2.1157	6.16	0.17	0.750			
0.5657	36205.57	3.7510	3.7510	2.1599	6.14	0.15	0.750			
0.5722	36618.09	3.7480	3.7481	2.2256	6.12	0.13	0.750			
0.5791	37059.29	3.7450	3.7449	2.2607	6.10	0.11	0.750			
0.5859	37498.46	3.7420	3.7419	2.3172	6.08	0.09	0.750			
0.5930	37954.52	3.7390	3.7390	2.3453	6.07	0.08	0.750			
0.6000	38400.03	3.7360	3.7360	2.3763	6.05	0.06	0.750			
0.6072	38862.12	3.7330	3.7328	2.4859	6.03	0.04	0.750			
0.6148	39347.10	3.7300	3.7299	2.5236	6.01	0.02	0.750			
0.6226	39845.33	3.7270	3.7272	2.5660	5.99	0.00	0.750			
0.6302	40329.80	3.7240	3.7239	2.5723	5.98	-0.01	0.750			
0.6378	40820.66	3.7210	3.7210	2.4283	5.96	-0.03	0.750			
0.6452	41295.17	3.7180	3.7182	2.3300	5.95	-0.04	0.750			
0.6517	41710.39	3.7150	3.7150	2.1523	5.95	-0.04	0.750			
0.6581	42117.17	3.7120	3.7120	1.9438	5.94	-0.05	0.750			
0.6637	42476.59	3.7090	3.7089	1.8001	5.93	-0.06	0.750			
0.6686	42792.79	3.7060	3.7062	1.6049	5.93	-0.06	0.750			
0.6731	43081.52	3.7030	3.7031	1.4379	5.93	-0.06	0.750			
0.6771	43331.71	3.7000	3.6999	1.2710	5.93	-0.06	0.750			
0.6804	43547.96	3.6970	3.6971	1.1382	5.93	-0.06	0.750			
0.6838	43761.46	3.6940	3.6942	1.0677	5.93	-0.06	0.750			
0.6867	43950.45	3.6910	3.6907	0.9955	5.93	-0.06	0.750			
0.6895	44128.30	3.6880	3.6881	0.9295	5.93	-0.06	0.750			
0.6922	44298.57	3.6850	3.6850	0.8892	5.94	-0.05	0.750			
0.6948	44465.66	3.6820	3.6820	0.8653	5.94	-0.05	0.750			
0.6974	44634.74	3.6790	3.6789	0.8289	5.95	-0.04	0.750			
0.6999	44793.92	3.6760	3.6756	0.7737	5.95	-0.04	0.750			
0.7021	44933.12	3.6730	3.6733	0.7500	5.95	-0.04	0.750			
0.7042	45070.81	3.6700	3.6707	0.7271	5.95	-0.04	0.750			
0.7063	45205.89	3.6670	3.6657	0.6930	5.95	-0.04	0.750			
0.7084	45336.85	3.6640	3.6647	0.6684	5.95	-0.04	0.750			
0.7104	45463.95	3.6610	3.6615	0.6267	5.95	-0.04	0.750			
0.7123	45585.45	3.6580	3.6579	0.5859	5.95	-0.04	0.750			
0.7140	45698.54	3.6550	3.6553	0.5495	5.96	-0.03	0.750			
0.7155	45791.11	3.6520	3.6524	0.4941	5.96	-0.03	0.750			
0.7169	45882.36	3.6490	3.6491	0.4614	5.96	-0.03	0.750			
0.7183	45968.45	3.6460	3.6467	0.4282	5.97	-0.02	0.750			
0.7195	46047.62	3.6430	3.6433	0.3948	5.97	-0.02	0.750			
0.7207	46123.03	3.6400	3.6401	0.3656	5.98	-0.01	0.750			
0.7218	46192.35	3.6370	3.6369	0.3261	5.98	-0.01	0.750			
0.7226	46249.01	3.6340	3.6339	0.2860	5.98	-0.01	0.750			
0.7235	46302.74	3.6310	3.6310	0.2536	5.99	-0.00	0.750			
0.7242	46348.12	3.6280	3.6280	0.2178	5.99	-0.00	0.750			
0.7248	46387.54	3.6250	3.6249	0.1836	5.99	0.00	0.750			
0.7253	46418.64	3.6220	3.6221	0.1443	5.99	0.00	0.750			
0.7257	46442.32	3.6190	3.6193	0.1062	5.99	0.00	0.750			
0.7259	46459.12	3.6160	3.6168	0.0688	5.99	0.00	0.750			
0.7261	46471.17	3.6130	3.6130	0.0243	5.99	0.00	0.751			
0.7261	46471.67	3.6100	3.6128	-0.0191	5.99	0.00	0.751			
