Ah_balance (normalized)	Ah_balance (mAh)	Voltage - fit (V)	Voltage -  interpolate (V)	dQ/dV (1/V)	Temperature (°C)	Temperature - diff (°C)	Current (C)	R_DC 0ms (mOhm)	R_DC 50ms (mOhm)	R_DC 50 ms PEC (mOhm)
0.0939	6011.26	4.0100	4.0095	-0.0598	5.94	0.02	-0.750			
0.0942	6025.92	4.0070	4.0066	-0.0899	5.94	0.02	-0.750			
0.0945	6046.29	4.0040	4.0038	-0.1175	5.94	0.02	-0.750			
0.0949	6071.35	4.0010	4.0010	-0.1435	5.94	0.02	-0.750			
0.0953	6101.58	3.9980	3.9980	-0.1687	5.93	0.01	-0.750			
0.0959	6136.43	3.9950	3.9951	-0.1935	5.93	0.01	-0.750			
0.0965	6176.94	3.9920	3.9919	-0.2178	5.93	0.01	-0.750			
0.0972	6220.78	3.9890	3.9890	-0.2411	5.93	0.01	-0.750			
0.0980	6269.31	3.9860	3.9860	-0.2641	5.93	0.01	-0.750			
0.0988	6322.24	3.9830	3.9831	-0.2868	5.93	0.01	-0.750			
0.0997	6379.86	3.9800	3.9800	-0.3087	5.93	0.01	-0.750			
0.1006	6441.07	3.9770	3.9770	-0.3315	5.93	0.01	-0.750			
0.1017	6506.50	3.9740	3.9740	-0.3553	5.92	0.00	-0.750			
0.1028	6576.99	3.9710	3.9710	-0.3790	5.92	0.00	-0.750			
0.1039	6651.96	3.9680	3.9678	-0.4025	5.92	0.00	-0.750			
0.1052	6731.36	3.9650	3.9650	-0.4280	5.92	-0.00	-0.750			
0.1065	6816.51	3.9620	3.9620	-0.4511	5.92	-0.00	-0.750			
0.1079	6905.65	3.9590	3.9591	-0.4734	5.91	-0.01	-0.750			
0.1094	6999.16	3.9560	3.9560	-0.4942	5.91	-0.01	-0.750			
0.1109	7096.37	3.9530	3.9530	-0.5138	5.91	-0.01	-0.750			
0.1125	7197.07	3.9500	3.9500	-0.5351	5.91	-0.01	-0.750			
0.1141	7301.88	3.9470	3.9470	-0.5527	5.90	-0.02	-0.750			
0.1158	7410.20	3.9440	3.9440	-0.5689	5.90	-0.02	-0.750			
0.1175	7521.67	3.9410	3.9410	-0.5849	5.90	-0.02	-0.750			
0.1193	7635.55	3.9380	3.9381	-0.6018	5.90	-0.02	-0.750			
0.1211	7753.17	3.9350	3.9350	-0.6121	5.90	-0.02	-0.750			
0.1230	7871.35	3.9320	3.9320	-0.6246	5.90	-0.02	-0.750			
0.1249	7993.28	3.9290	3.9290	-0.6391	5.89	-0.03	-0.750			
0.1268	8117.00	3.9260	3.9260	-0.6526	5.89	-0.03	-0.750			
0.1288	8243.60	3.9230	3.9230	-0.6642	5.89	-0.03	-0.750			
0.1308	8371.94	3.9200	3.9200	-0.6770	5.89	-0.03	-0.750			
0.1329	8503.45	3.9170	3.9170	-0.6857	5.89	-0.03	-0.750			
0.1350	8638.42	3.9140	3.9140	-0.6953	5.89	-0.03	-0.750			
0.1371	8772.42	3.9110	3.9110	-0.7018	5.89	-0.03	-0.750			
0.1392	8908.57	3.9080	3.9080	-0.7087	5.89	-0.03	-0.750			
0.1413	9045.18	3.9050	3.9051	-0.7112	5.89	-0.03	-0.750			
0.1435	9181.86	3.9020	3.9018	-0.7150	5.89	-0.03	-0.750			
0.1456	9318.81	3.8990	3.8990	-0.7191	5.89	-0.03	-0.750			
0.1478	9457.49	3.8960	3.8960	-0.7287	5.89	-0.03	-0.750			
0.1500	9598.25	3.8930	3.8930	-0.7298	5.89	-0.03	-0.750			
0.1522	9739.88	3.8900	3.8899	-0.7348	5.89	-0.03	-0.750			
0.1544	9882.39	3.8870	3.8872	-0.7342	5.89	-0.03	-0.750			
0.1566	10023.09	3.8840	3.8840	-0.7389	5.89	-0.03	-0.750			
0.1588	10163.14	3.8810	3.8810	-0.7454	5.90	-0.02	-0.750			
0.1610	10306.31	3.8780	3.8779	-0.7452	5.90	-0.02	-0.750			
0.1633	10451.92	3.8750	3.8749	-0.7511	5.90	-0.02	-0.750			
0.1656	10597.58	3.8720	3.8720	-0.7530	5.91	-0.01	-0.750			
0.1679	10742.62	3.8690	3.8690	-0.7550	5.91	-0.01	-0.750			
0.1701	10887.45	3.8660	3.8659	-0.7582	5.91	-0.01	-0.750			
0.1723	11029.50	3.8630	3.8630	-0.7518	5.91	-0.01	-0.750			
0.1746	11173.29	3.8600	3.8599	-0.7569	5.92	-0.00	-0.750			
0.1769	11321.38	3.8570	3.8570	-0.7624	5.92	-0.00	-0.750			
0.1792	11468.21	3.8540	3.8541	-0.7674	5.92	-0.00	-0.750			
0.1815	11615.47	3.8510	3.8510	-0.7650	5.92	0.00	-0.750			
0.1838	11762.63	3.8480	3.8479	-0.7666	5.92	0.00	-0.750			
0.1861	11909.89	3.8450	3.8451	-0.7711	5.93	0.01	-0.750			
0.1884	12057.85	3.8420	3.8418	-0.7727	5.93	0.01	-0.750			
0.1907	12207.05	3.8390	3.8390	-0.7736	5.93	0.01	-0.750			
0.1931	12356.39	3.8360	3.8361	-0.7769	5.93	0.01	-0.750			
0.1954	12505.32	3.8330	3.8330	-0.7770	5.94	0.02	-0.750			
0.1977	12655.67	3.8300	3.8299	-0.7790	5.95	0.03	-0.750			
0.2001	12803.80	3.8270	3.8270	-0.7738	5.96	0.04	-0.750			
0.2024	12952.26	3.8240	3.8240	-0.7712	5.96	0.04	-0.750			
0.2047	13099.97	3.8210	3.8213	-0.7754	5.97	0.05	-0.750			
0.2070	13248.63	3.8180	3.8179	-0.7774	5.97	0.05	-0.750			
0.2093	13396.92	3.8150	3.8150	-0.7804	5.98	0.06	-0.750			
0.2117	13547.89	3.8120	3.8119	-0.7855	5.98	0.06	-0.750			
0.2141	13699.30	3.8090	3.8091	-0.7884	5.99	0.07	-0.750			
0.2164	13851.97	3.8060	3.8059	-0.7927	5.99	0.07	-0.750			
0.2188	14004.68	3.8030	3.8030	-0.7946	5.99	0.07	-0.750			
0.2212	14155.39	3.8000	3.7999	-0.8005	6.00	0.08	-0.750			
0.2236	14310.10	3.7970	3.7970	-0.7995	6.00	0.08	-0.750			
0.2260	14464.23	3.7940	3.7939	-0.7988	6.00	0.08	-0.750			
0.2284	14619.25	3.7910	3.7910	-0.8006	6.01	0.09	-0.750			
0.2308	14773.36	3.7880	3.7881	-0.7959	6.01	0.09	-0.750			
0.2332	14923.08	3.7850	3.7849	-0.7983	6.02	0.10	-0.750			
0.2356	15076.96	3.7820	3.7820	-0.7948	6.02	0.10	-0.750			
0.2379	15227.70	3.7790	3.7790	-0.7894	6.03	0.11	-0.750			
0.2403	15381.38	3.7760	3.7758	-0.7928	6.04	0.12	-0.750			
0.2427	15534.27	3.7730	3.7731	-0.7929	6.04	0.12	-0.750			
0.2451	15684.49	3.7700	3.7700	-0.7964	6.04	0.12	-0.750			
0.2475	15837.55	3.7670	3.7670	-0.7966	6.04	0.12	-0.750			
0.2498	15988.73	3.7640	3.7640	-0.7887	6.05	0.13	-0.750			
0.2523	16144.05	3.7610	3.7609	-0.7966	6.05	0.13	-0.750			
0.2546	16296.82	3.7580	3.7583	-0.7995	6.05	0.13	-0.750			
0.2570	16450.13	3.7550	3.7549	-0.7982	6.06	0.14	-0.750			
0.2594	16603.42	3.7520	3.7519	-0.7966	6.07	0.15	-0.750			
0.2618	16755.65	3.7490	3.7490	-0.7970	6.07	0.15	-0.750			
0.2642	16908.49	3.7460	3.7461	-0.8043	6.08	0.16	-0.750			
0.2666	17063.19	3.7430	3.7430	-0.8072	6.09	0.17	-0.750			
0.2690	17218.24	3.7400	3.7399	-0.8066	6.09	0.17	-0.750			
0.2714	17372.46	3.7370	3.7370	-0.8092	6.10	0.18	-0.750			
0.2739	17528.65	3.7340	3.7341	-0.8149	6.11	0.19	-0.750			
0.2763	17685.13	3.7310	3.7309	-0.8196	6.11	0.19	-0.750			
0.2788	17842.44	3.7280	3.7280	-0.8232	6.12	0.20	-0.750			
0.2813	18000.88	3.7250	3.7250	-0.8283	6.12	0.20	-0.750			
0.2838	18161.10	3.7220	3.7220	-0.8376	6.12	0.20	-0.750			
0.2863	18324.34	3.7190	3.7190	-0.8402	6.13	0.21	-0.750			
0.2888	18485.06	3.7160	3.7160	-0.8430	6.13	0.21	-0.750			
0.2914	18646.99	3.7130	3.7130	-0.8490	6.13	0.21	-0.750			
0.2939	18810.99	3.7100	3.7100	-0.8512	6.14	0.22	-0.750			
0.2965	18973.89	3.7070	3.7069	-0.8617	6.14	0.22	-0.750			
0.2991	19140.98	3.7040	3.7040	-0.8674	6.15	0.23	-0.750			
0.3017	19309.25	3.7010	3.7010	-0.8675	6.16	0.24	-0.750			
0.3043	19477.34	3.6980	3.6983	-0.8805	6.17	0.25	-0.750			
0.3069	19644.73	3.6950	3.6950	-0.8866	6.18	0.26	-0.750			
0.3096	19814.07	3.6920	3.6920	-0.8891	6.19	0.27	-0.750			
0.3123	19985.09	3.6890	3.6889	-0.9007	6.19	0.27	-0.750			
0.3150	20158.56	3.6860	3.6860	-0.9139	6.20	0.28	-0.750			
0.3177	20335.83	3.6830	3.6831	-0.9251	6.21	0.29	-0.750			
0.3206	20517.04	3.6800	3.6800	-0.9417	6.22	0.30	-0.750			
0.3234	20696.21	3.6770	3.6770	-0.9498	6.22	0.30	-0.750			
0.3262	20879.80	3.6740	3.6741	-0.9577	6.22	0.30	-0.750			
0.3292	21066.91	3.6710	3.6712	-0.9691	6.23	0.31	-0.750			
0.3321	21253.12	3.6680	3.6680	-0.9800	6.23	0.31	-0.750			
0.3350	21442.19	3.6650	3.6648	-0.9906	6.24	0.32	-0.750			
0.3380	21632.51	3.6620	3.6620	-0.9999	6.24	0.32	-0.750			
0.3410	21824.92	3.6590	3.6588	-1.0090	6.25	0.33	-0.750			
0.3441	22022.51	3.6560	3.6559	-1.0209	6.25	0.33	-0.750			
0.3472	22220.23	3.6530	3.6530	-1.0346	6.26	0.34	-0.750			
0.3503	22418.13	3.6500	3.6500	-1.0445	6.26	0.34	-0.750			
0.3534	22616.94	3.6470	3.6470	-1.0514	6.27	0.35	-0.750			
0.3566	22824.13	3.6440	3.6438	-1.0784	6.27	0.35	-0.750			
0.3599	23034.87	3.6410	3.6410	-1.0873	6.28	0.36	-0.750			
0.3632	23244.80	3.6380	3.6379	-1.1004	6.28	0.36	-0.750			
0.3665	23456.90	3.6350	3.6354	-1.1100	6.29	0.37	-0.750			
0.3699	23671.36	3.6320	3.6319	-1.1260	6.29	0.37	-0.750			
0.3733	23889.29	3.6290	3.6289	-1.1356	6.30	0.38	-0.750			
0.3767	24106.46	3.6260	3.6260	-1.1463	6.31	0.39	-0.750			
0.3801	24329.48	3.6230	3.6231	-1.1777	6.31	0.39	-0.750			
0.3837	24557.90	3.6200	3.6198	-1.1909	6.31	0.39	-0.750			
0.3873	24788.33	3.6170	3.6169	-1.1996	6.32	0.40	-0.750			
0.3909	25019.94	3.6140	3.6139	-1.2094	6.32	0.40	-0.750			
0.3946	25256.01	3.6110	3.6110	-1.2275	6.32	0.40	-0.750			
0.3983	25492.50	3.6080	3.6079	-1.2410	6.33	0.41	-0.750			
0.4020	25727.24	3.6050	3.6049	-1.2521	6.33	0.41	-0.750			
0.4058	25968.06	3.6020	3.6021	-1.2614	6.33	0.41	-0.750			
0.4096	26216.47	3.5990	3.5991	-1.2770	6.34	0.42	-0.750	0.485	1.118	
0.4135	26462.08	3.5960	3.5959	-1.2892	6.34	0.42	-0.750			
0.4173	26708.89	3.5930	3.5933	-1.3024	6.35	0.43	-0.750			
0.4213	26964.06	3.5900	3.5900	-1.3223	6.35	0.43	-0.750			
0.4253	27216.98	3.5870	3.5869	-1.3360	6.35	0.43	-0.750			
0.4293	27475.65	3.5840	3.5842	-1.3571	6.35	0.43	-0.750			
0.4334	27739.92	3.5810	3.5810	-1.3755	6.36	0.44	-0.750			
0.4376	28004.87	3.5780	3.5779	-1.3908	6.36	0.44	-0.750			
0.4418	28272.51	3.5750	3.5752	-1.4119	6.37	0.45	-0.750			
0.4461	28548.85	3.5720	3.5719	-1.4319	6.38	0.46	-0.750			
0.4504	28822.90	3.5690	3.5689	-1.4535	6.38	0.46	-0.750			
0.4547	29099.87	3.5660	3.5664	-1.4943	6.39	0.47	-0.750			
0.4593	29396.31	3.5630	3.5629	-1.5277	6.39	0.47	-0.750			
0.4639	29691.39	3.5600	3.5598	-1.5625	6.39	0.47	-0.750			
0.4687	29999.17	3.5570	3.5572	-1.5659	6.39	0.47	-0.750			
0.4736	30309.83	3.5540	3.5538	-1.5819	6.40	0.48	-0.750			
0.4783	30614.08	3.5510	3.5511	-1.5758	6.41	0.49	-0.750			
0.4829	30906.59	3.5480	3.5479	-1.5631	6.42	0.50	-0.750			
0.4875	31201.56	3.5450	3.5451	-1.5758	6.42	0.50	-0.750			
0.4923	31506.53	3.5420	3.5420	-1.5989	6.43	0.51	-0.750			
0.4971	31817.53	3.5390	3.5391	-1.6224	6.43	0.51	-0.750			
0.5021	32131.94	3.5360	3.5360	-1.6446	6.43	0.51	-0.750			
0.5071	32453.74	3.5330	3.5328	-1.6367	6.43	0.51	-0.750			
0.5120	32765.62	3.5300	3.5300	-1.6403	6.44	0.52	-0.750			
0.5169	33080.89	3.5270	3.5272	-1.6430	6.45	0.53	-0.750			
0.5217	33390.71	3.5240	3.5240	-1.6483	6.46	0.54	-0.750			
0.5267	33708.85	3.5210	3.5209	-1.6636	6.47	0.55	-0.750			
0.5317	34027.94	3.5180	3.5181	-1.6403	6.47	0.55	-0.750			
0.5366	34344.63	3.5150	3.5149	-1.6629	6.48	0.56	-0.750			
0.5417	34667.46	3.5120	3.5121	-1.6533	6.49	0.57	-0.750			
0.5465	34976.61	3.5090	3.5090	-1.6636	6.50	0.58	-0.750			
0.5515	35297.00	3.5060	3.5059	-1.6710	6.51	0.59	-0.750			
0.5566	35620.31	3.5030	3.5027	-1.6875	6.51	0.59	-0.750			
0.5616	35944.86	3.5000	3.5000	-1.6828	6.52	0.60	-0.750			
0.5666	36265.26	3.4970	3.4971	-1.6825	6.53	0.61	-0.750			
0.5717	36589.29	3.4940	3.4940	-1.6732	6.54	0.62	-0.750			
0.5767	36910.70	3.4910	3.4909	-1.6540	6.55	0.63	-0.750			
0.5817	37231.00	3.4880	3.4879	-1.6433	6.56	0.64	-0.750			
0.5867	37550.22	3.4850	3.4851	-1.6345	6.57	0.65	-0.750			
0.5918	37877.25	3.4820	3.4821	-1.5927	6.58	0.66	-0.750			
0.5965	38174.02	3.4790	3.4790	-1.5205	6.59	0.67	-0.750			
0.6009	38455.34	3.4760	3.4760	-1.4784	6.60	0.68	-0.750			
0.6052	38731.39	3.4730	3.4734	-1.4277	6.61	0.69	-0.750			
0.6092	38989.23	3.4700	3.4695	-1.4282	6.62	0.70	-0.750			
0.6133	39250.58	3.4670	3.4668	-1.4384	6.62	0.70	-0.750			
0.6176	39524.12	3.4640	3.4642	-1.4656	6.63	0.71	-0.750			
0.6223	39824.07	3.4610	3.4614	-1.5162	6.64	0.72	-0.750			
0.6269	40124.08	3.4580	3.4579	-1.5050	6.65	0.73	-0.750			
0.6315	40418.46	3.4550	3.4549	-1.4904	6.67	0.75	-0.750			
0.6360	40705.17	3.4520	3.4522	-1.4593	6.68	0.76	-0.750			
0.6403	40979.28	3.4490	3.4489	-1.4504	6.69	0.77	-0.750			
0.6446	41255.35	3.4460	3.4459	-1.4079	6.70	0.78	-0.750			
0.6488	41525.02	3.4430	3.4428	-1.3841	6.71	0.79	-0.750			
0.6529	41788.73	3.4400	3.4402	-1.3634	6.73	0.81	-0.750			
0.6570	42045.19	3.4370	3.4371	-1.3384	6.74	0.82	-0.750			
0.6610	42301.46	3.4340	3.4338	-1.3198	6.75	0.83	-0.750			
0.6649	42550.41	3.4310	3.4309	-1.2911	6.76	0.84	-0.750			
0.6687	42794.04	3.4280	3.4281	-1.2622	6.78	0.86	-0.750			
0.6726	43044.27	3.4250	3.4250	-1.2480	6.80	0.88	-0.750			
0.6762	43277.52	3.4220	3.4220	-1.2046	6.81	0.89	-0.750			
0.6798	43505.19	3.4190	3.4192	-1.1739	6.83	0.91	-0.750			
0.6833	43729.80	3.4160	3.4158	-1.1320	6.85	0.93	-0.750			
0.6866	43941.16	3.4130	3.4129	-1.1061	6.86	0.94	-0.750			
0.6898	44148.75	3.4100	3.4099	-1.0923	6.88	0.96	-0.750			
0.6930	44353.55	3.4070	3.4066	-1.0939	6.89	0.97	-0.750			
0.6963	44563.75	3.4040	3.4038	-1.0657	6.90	0.98	-0.750			
0.6995	44766.27	3.4010	3.4011	-1.0442	6.91	0.99	-0.750			
0.7026	44966.33	3.3980	3.3979	-1.0067	6.92	1.00	-0.750			
0.7058	45168.37	3.3950	3.3948	-0.9949	6.94	1.02	-0.750			
0.7086	45348.96	3.3920	3.3920	-0.9505	6.95	1.03	-0.750			
0.7114	45526.81	3.3890	3.3889	-0.9219	6.96	1.04	-0.750			
0.7141	45700.93	3.3860	3.3859	-0.8992	6.98	1.06	-0.750			
0.7167	45868.93	3.3830	3.3830	-0.8708	6.99	1.07	-0.750			
0.7193	46033.56	3.3800	3.3800	-0.8445	7.00	1.08	-0.750			
0.7218	46194.49	3.3770	3.3769	-0.8163	7.01	1.09	-0.750			
0.7242	46347.44	3.3740	3.3740	-0.7918	7.02	1.10	-0.750			
0.7265	46497.84	3.3710	3.3710	-0.7777	7.04	1.12	-0.750			
