Ah_balance (normalized)	Ah_balance (mAh)	Voltage - fit (V)	Voltage -  interpolate (V)	dQ/dV (1/V)	Temperature (°C)	Temperature - diff (°C)	Current (C)	R_DC 0ms (mOhm)	R_DC 50ms (mOhm)	R_DC 50 ms PEC (mOhm)
0.4958	31730.77	3.7570	3.7571	1.7195	25.44	1.15	0.750			
0.5010	32065.30	3.7540	3.7540	1.7638	25.42	1.13	0.750			
0.5064	32407.12	3.7510	3.7510	1.7941	25.41	1.12	0.750			
0.5118	32758.00	3.7480	3.7480	1.8532	25.39	1.10	0.750			
0.5175	33116.87	3.7450	3.7449	1.8914	25.37	1.08	0.750			
0.5232	33487.13	3.7420	3.7420	1.9381	25.34	1.05	0.750			
0.5291	33862.68	3.7390	3.7390	1.9870	25.31	1.02	0.750			
0.5351	34243.85	3.7360	3.7360	2.0232	25.29	1.00	0.750			
0.5412	34639.61	3.7330	3.7330	2.0863	25.27	0.98	0.750			
0.5476	35047.41	3.7300	3.7300	2.1525	25.24	0.95	0.750			
0.5542	35466.01	3.7270	3.7270	2.1974	25.21	0.92	0.750			
0.5608	35891.44	3.7240	3.7240	2.2207	25.19	0.90	0.750			
0.5675	36321.28	3.7210	3.7210	2.2944	25.17	0.88	0.750			
0.5745	36765.56	3.7180	3.7180	2.3564	25.15	0.86	0.750			
0.5817	37231.94	3.7150	3.7150	2.4366	25.12	0.83	0.750			
0.5891	37702.26	3.7120	3.7120	2.4880	25.09	0.80	0.750			
0.5966	38183.59	3.7090	3.7090	2.5408	25.06	0.77	0.750			
0.6044	38678.51	3.7060	3.7060	2.6169	25.03	0.74	0.750			
0.6123	39185.18	3.7030	3.7030	2.6795	25.01	0.72	0.750			
0.6205	39711.27	3.7000	3.7000	2.7945	24.98	0.69	0.750			
0.6291	40262.09	3.6970	3.6970	2.9096	24.95	0.66	0.750			
0.6379	40825.16	3.6940	3.6940	2.9885	24.91	0.62	0.750			
0.6471	41412.10	3.6910	3.6910	3.0971	24.87	0.58	0.750			
0.6566	42021.76	3.6880	3.6880	3.2400	24.84	0.55	0.750			
0.6664	42652.27	3.6850	3.6850	3.3792	24.81	0.52	0.750			
0.6769	43319.82	3.6820	3.6820	3.4840	24.79	0.50	0.750			
0.6874	43996.07	3.6790	3.6790	3.5553	24.76	0.47	0.750			
0.6982	44686.82	3.6760	3.6760	3.5533	24.73	0.44	0.750			
0.7087	45355.10	3.6730	3.6730	3.3426	24.70	0.41	0.750			
0.7184	45974.69	3.6700	3.6700	2.9923	24.69	0.40	0.750			
0.7266	46500.22	3.6670	3.6670	2.5500	24.66	0.37	0.750			
0.7335	46942.20	3.6640	3.6640	2.1891	24.64	0.35	0.750			
0.7395	47330.07	3.6610	3.6610	1.9648	24.63	0.34	0.750			
0.7451	47685.58	3.6580	3.6580	1.8298	24.63	0.34	0.750			
0.7504	48028.14	3.6550	3.6549	1.7198	24.62	0.33	0.750			
0.7555	48351.39	3.6520	3.6520	1.6126	24.61	0.32	0.750			
0.7601	48649.36	3.6490	3.6490	1.5010	24.59	0.30	0.750			
0.7644	48920.02	3.6460	3.6461	1.4102	24.58	0.29	0.750			
0.7684	49177.86	3.6430	3.6429	1.3399	24.57	0.28	0.750			
0.7722	49422.97	3.6400	3.6400	1.3059	24.56	0.27	0.750			
0.7760	49666.67	3.6370	3.6371	1.2907	24.55	0.26	0.750			
0.7799	49915.59	3.6340	3.6339	1.2966	24.54	0.25	0.750			
0.7838	50162.29	3.6310	3.6311	1.3095	24.53	0.24	0.750			
0.7877	50415.79	3.6280	3.6280	1.3226	24.52	0.23	0.750			
0.7918	50675.38	3.6250	3.6249	1.3344	24.51	0.22	0.750			
0.7958	50933.86	3.6220	3.6220	1.3312	24.50	0.21	0.750			
0.7999	51191.39	3.6190	3.6190	1.3236	24.50	0.21	0.750			
0.8038	51443.97	3.6160	3.6160	1.3088	24.49	0.20	0.750			
0.8076	51689.48	3.6130	3.6130	1.2955	24.48	0.19	0.750			
0.8115	51933.41	3.6100	3.6100	1.2958	24.47	0.18	0.750			
0.8153	52181.86	3.6070	3.6070	1.3081	24.46	0.17	0.750			
0.8193	52433.37	3.6040	3.6040	1.3354	24.44	0.15	0.750			
0.8233	52689.97	3.6010	3.6010	1.3688	24.43	0.14	0.750			
0.8274	52955.51	3.5980	3.5980	1.4082	24.42	0.13	0.750			
0.8317	53229.59	3.5950	3.5950	1.4518	24.40	0.11	0.750			
0.8361	53512.30	3.5920	3.5921	1.4907	24.39	0.10	0.750			
0.8407	53803.03	3.5890	3.5890	1.5321	24.38	0.09	0.750			
0.8453	54102.15	3.5860	3.5860	1.5566	24.36	0.07	0.750			
0.8501	54403.71	3.5830	3.5830	1.5847	24.35	0.06	0.750			
0.8548	54710.18	3.5800	3.5800	1.6196	24.33	0.04	0.750			
0.8598	55026.75	3.5770	3.5770	1.6341	24.31	0.02	0.750			
0.8647	55340.55	3.5740	3.5740	1.6441	24.30	0.01	0.750			
0.8697	55660.59	3.5710	3.5710	1.6617	24.28	-0.01	0.750			
0.8747	55978.74	3.5680	3.5680	1.6674	24.27	-0.02	0.750			
0.8797	56298.12	3.5650	3.5650	1.6795	24.25	-0.04	0.750			
0.8847	56623.27	3.5620	3.5620	1.7055	24.24	-0.05	0.750			
0.8899	56951.99	3.5590	3.5590	1.7269	24.23	-0.06	0.750			
0.8951	57284.26	3.5560	3.5560	1.7890	24.21	-0.08	0.750			
0.9005	57630.30	3.5530	3.5530	1.8503	24.20	-0.09	0.750			
0.9062	57997.48	3.5500	3.5500	1.8863	24.19	-0.10	0.750			
0.9123	58386.62	3.5470	3.5469	1.6809	24.18	-0.11	0.750			
0.9168	58678.11	3.5440	3.5443	1.3726	24.17	-0.12	0.750			
0.9206	58917.60	3.5410	3.5412	1.0981	24.18	-0.11	0.750			
0.9231	59080.56	3.5380	3.5378	0.8516	24.18	-0.11	0.750			
0.9249	59195.60	3.5350	3.5347	0.6262	24.18	-0.11	0.750			
0.9262	59279.32	3.5320	3.5319	0.4842	24.18	-0.11	0.750			
0.9275	59358.19	3.5290	3.5289	0.4179	24.19	-0.10	0.750			
0.9285	59427.03	3.5260	3.5259	0.3728	24.19	-0.10	0.750			
0.9296	59493.61	3.5230	3.5229	0.3456	24.19	-0.10	0.750			
0.9306	59555.37	3.5200	3.5200	0.3271	24.19	-0.10	0.750			
0.9315	59616.45	3.5170	3.5170	0.3144	24.19	-0.10	0.750			
0.9324	59675.14	3.5140	3.5140	0.3040	24.19	-0.10	0.750			
0.9333	59732.33	3.5110	3.5110	0.2953	24.19	-0.10	0.750			
0.9342	59787.81	3.5080	3.5080	0.2879	24.19	-0.10	0.750			
0.9350	59842.60	3.5050	3.5050	0.2818	24.19	-0.10	0.750			
0.9359	59895.93	3.5020	3.5020	0.2755	24.19	-0.10	0.750			
0.9367	59948.12	3.4990	3.4990	0.2699	24.20	-0.09	0.750			
0.9375	59999.43	3.4960	3.4960	0.2654	24.20	-0.09	0.750			
0.9383	60049.80	3.4930	3.4929	0.2604	24.20	-0.09	0.750			
0.9391	60099.27	3.4900	3.4900	0.2557	24.20	-0.09	0.750			
0.9398	60147.92	3.4870	3.4870	0.2516	24.20	-0.09	0.750			
0.9406	60195.74	3.4840	3.4840	0.2476	24.20	-0.09	0.750			
0.9413	60242.88	3.4810	3.4810	0.2442	24.20	-0.09	0.750			
0.9420	60289.20	3.4780	3.4780	0.2401	24.20	-0.09	0.750			
0.9427	60334.87	3.4750	3.4750	0.2366	24.20	-0.09	0.750			
0.9434	60380.15	3.4720	3.4720	0.2336	24.20	-0.09	0.750			
0.9441	60424.64	3.4690	3.4690	0.2305	24.20	-0.09	0.750			
0.9448	60468.48	3.4660	3.4660	0.2278	24.21	-0.08	0.750			
0.9455	60511.82	3.4630	3.4630	0.2248	24.21	-0.08	0.750			
0.9462	60554.74	3.4600	3.4600	0.2217	24.21	-0.08	0.750			
0.9468	60597.01	3.4570	3.4569	0.2185	24.21	-0.08	0.750			
0.9475	60638.80	3.4540	3.4540	0.2161	24.21	-0.08	0.750			
0.9481	60679.98	3.4510	3.4511	0.2129	24.21	-0.08	0.750			
0.9488	60720.50	3.4480	3.4480	0.2102	24.22	-0.07	0.750			
0.9494	60760.51	3.4450	3.4450	0.2072	24.22	-0.07	0.750			
0.9500	60800.05	3.4420	3.4420	0.2040	24.22	-0.07	0.750			
0.9506	60838.96	3.4390	3.4390	0.2013	24.22	-0.07	0.750			
0.9512	60877.44	3.4360	3.4360	0.1989	24.22	-0.07	0.750			
0.9518	60915.28	3.4330	3.4330	0.1964	24.22	-0.07	0.750			
0.9524	60952.58	3.4300	3.4300	0.1937	24.22	-0.07	0.750			
0.9530	60989.55	3.4270	3.4269	0.1915	24.23	-0.06	0.750			
0.9535	61025.99	3.4240	3.4240	0.1890	24.23	-0.06	0.750			
0.9541	61062.09	3.4210	3.4210	0.1872	24.23	-0.06	0.750			
0.9547	61097.95	3.4180	3.4180	0.1853	24.23	-0.06	0.750			
0.9552	61133.23	3.4150	3.4150	0.1833	24.23	-0.06	0.750			
0.9558	61168.10	3.4120	3.4120	0.1811	24.23	-0.06	0.750			
0.9563	61202.69	3.4090	3.4090	0.1792	24.23	-0.06	0.750			
0.9568	61237.08	3.4060	3.4059	0.1770	24.24	-0.05	0.750			
0.9574	61270.97	3.4030	3.4030	0.1749	24.24	-0.05	0.750			
0.9579	61304.29	3.4000	3.4001	0.1722	24.24	-0.05	0.750			
0.9584	61337.14	3.3970	3.3970	0.1695	24.24	-0.05	0.750			
0.9589	61369.33	3.3940	3.3940	0.1672	24.24	-0.05	0.750			
0.9594	61401.01	3.3910	3.3910	0.1645	24.24	-0.05	0.750			
0.9599	61432.35	3.3880	3.3880	0.1628	24.25	-0.04	0.750			
0.9604	61463.29	3.3850	3.3850	0.1610	24.25	-0.04	0.750			
0.9608	61494.09	3.3820	3.3820	0.1595	24.25	-0.04	0.750			
0.9613	61524.56	3.3790	3.3790	0.1580	24.25	-0.04	0.750			
0.9618	61554.80	3.3760	3.3760	0.1562	24.25	-0.04	0.750			
0.9623	61584.74	3.3730	3.3730	0.1546	24.25	-0.04	0.750			
0.9627	61614.18	3.3700	3.3700	0.1527	24.26	-0.03	0.750			
0.9632	61643.33	3.3670	3.3670	0.1510	24.26	-0.03	0.750			
0.9636	61672.14	3.3640	3.3640	0.1492	24.26	-0.03	0.750			
0.9641	61700.59	3.3610	3.3610	0.1474	24.26	-0.03	0.750			
0.9645	61728.74	3.3580	3.3580	0.1457	24.26	-0.03	0.750			
0.9649	61756.55	3.3550	3.3550	0.1439	24.26	-0.03	0.750			
0.9654	61784.06	3.3520	3.3520	0.1423	24.26	-0.03	0.750			
0.9658	61811.17	3.3490	3.3490	0.1404	24.27	-0.02	0.750			
0.9662	61837.91	3.3460	3.3460	0.1388	24.27	-0.02	0.750			
0.9666	61864.41	3.3430	3.3430	0.1372	24.27	-0.02	0.750			
0.9670	61890.59	3.3400	3.3400	0.1357	24.27	-0.02	0.750			
0.9674	61916.49	3.3370	3.3369	0.1340	24.27	-0.02	0.750			
0.9678	61942.09	3.3340	3.3340	0.1325	24.27	-0.02	0.750			
0.9682	61967.33	3.3310	3.3310	0.1311	24.27	-0.02	0.750			
0.9686	61992.34	3.3280	3.3280	0.1296	24.27	-0.02	0.750			
0.9690	62017.09	3.3250	3.3250	0.1282	24.27	-0.02	0.750			
0.9694	62041.55	3.3220	3.3220	0.1268	24.27	-0.02	0.750			
0.9698	62065.70	3.3190	3.3190	0.1253	24.27	-0.02	0.750			
0.9702	62089.66	3.3160	3.3160	0.1240	24.27	-0.02	0.750			
0.9705	62113.37	3.3130	3.3130	0.1227	24.28	-0.01	0.750			
0.9709	62136.81	3.3100	3.3100	0.1212	24.28	-0.01	0.750			
0.9712	62159.90	3.3070	3.3070	0.1196	24.28	-0.01	0.750			
0.9716	62182.72	3.3040	3.3040	0.1181	24.28	-0.01	0.750			
0.9720	62205.30	3.3010	3.3010	0.1167	24.28	-0.01	0.750			
0.9723	62227.48	3.2980	3.2980	0.1154	24.28	-0.01	0.750			
0.9726	62249.43	3.2950	3.2950	0.1139	24.28	-0.01	0.750			
0.9730	62271.20	3.2920	3.2920	0.1126	24.28	-0.01	0.750			
0.9733	62292.65	3.2890	3.2890	0.1112	24.28	-0.01	0.750			
0.9737	62313.95	3.2860	3.2860	0.1099	24.28	-0.01	0.750			
0.9740	62334.98	3.2830	3.2830	0.1086	24.28	-0.01	0.750			
0.9743	62355.66	3.2800	3.2800	0.1073	24.28	-0.01	0.750			
0.9746	62376.16	3.2770	3.2770	0.1060	24.28	-0.01	0.750			
0.9749	62396.32	3.2740	3.2741	0.1048	24.28	-0.01	0.750			
0.9753	62416.21	3.2710	3.2710	0.1034	24.28	-0.01	0.750			
0.9756	62435.95	3.2680	3.2680	0.1024	24.28	-0.01	0.750			
0.9759	62455.48	3.2650	3.2650	0.1013	24.28	-0.01	0.750			
0.9762	62474.92	3.2620	3.2620	0.1000	24.28	-0.01	0.750			
0.9765	62494.10	3.2590	3.2590	0.0990	24.28	-0.01	0.750			
0.9768	62512.98	3.2560	3.2560	0.0977	24.29	-0.00	0.750			
0.9771	62531.65	3.2530	3.2530	0.0964	24.29	-0.00	0.750			
0.9773	62550.00	3.2500	3.2500	0.0950	24.29	-0.00	0.750			
0.9776	62568.12	3.2470	3.2470	0.0937	24.29	-0.00	0.750			
0.9779	62585.89	3.2440	3.2440	0.0926	24.29	-0.00	0.750			
0.9782	62603.44	3.2410	3.2411	0.0912	24.29	-0.00	0.750			
0.9785	62620.92	3.2380	3.2379	0.0901	24.29	-0.00	0.750			
0.9787	62638.14	3.2350	3.2350	0.0890	24.29	-0.00	0.750			
0.9790	62655.12	3.2320	3.2320	0.0878	24.29	-0.00	0.750			
0.9792	62671.87	3.2290	3.2290	0.0868	24.29	-0.00	0.750			
0.9795	62688.42	3.2260	3.2260	0.0856	24.29	-0.00	0.750			
0.9798	62704.79	3.2230	3.2229	0.0845	24.29	-0.00	0.750			
0.9800	62720.91	3.2200	3.2200	0.0833	24.29	0.00	0.750			
0.9803	62736.71	3.2170	3.2170	0.0821	24.29	0.00	0.750			
0.9805	62752.34	3.2140	3.2140	0.0812	24.29	0.00	0.750			
0.9807	62767.84	3.2110	3.2111	0.0802	24.29	0.00	0.750			
0.9810	62783.19	3.2080	3.2080	0.0792	24.29	0.00	0.750			
0.9812	62798.29	3.2050	3.2050	0.0781	24.29	0.00	0.750			
0.9815	62813.15	3.2020	3.2020	0.0770	24.29	0.00	0.750			
0.9817	62827.87	3.1990	3.1990	0.0759	24.29	0.00	0.750			
0.9819	62842.42	3.1960	3.1960	0.0750	24.29	0.00	0.750			
0.9821	62856.71	3.1930	3.1930	0.0738	24.29	0.00	0.750			
0.9824	62870.72	3.1900	3.1900	0.0728	24.29	0.00	0.750			
0.9826	62884.51	3.1870	3.1869	0.0716	24.29	0.00	0.750			
0.9828	62898.18	3.1840	3.1840	0.0707	24.29	0.00	0.750			
0.9830	62911.66	3.1810	3.1811	0.0697	24.30	0.01	0.750			
0.9832	62924.95	3.1780	3.1780	0.0687	24.30	0.01	0.750			
0.9834	62938.07	3.1750	3.1751	0.0677	24.30	0.01	0.750			
0.9836	62951.00	3.1720	3.1720	0.0667	24.30	0.01	0.750			
0.9838	62963.70	3.1690	3.1691	0.0656	24.30	0.01	0.750			
0.9840	62976.18	3.1660	3.1660	0.0646	24.30	0.01	0.750			
0.9842	62988.46	3.1630	3.1630	0.0635	24.30	0.01	0.750			
0.9844	63000.57	3.1600	3.1600	0.0625	24.30	0.01	0.750			
0.9846	63012.49	3.1570	3.1570	0.0614	24.30	0.01	0.750			
0.9848	63024.19	3.1540	3.1540	0.0604	24.30	0.01	0.750			
0.9849	63035.68	3.1510	3.1510	0.0594	24.30	0.01	0.750			
0.9851	63046.98	3.1480	3.1480	0.0583	24.30	0.01	0.750			
0.9853	63058.16	3.1450	3.1450	0.0572	24.30	0.01	0.750			
0.9855	63069.02	3.1420	3.1420	0.0560	24.30	0.01	0.750			
0.9856	63079.65	3.1390	3.1390	0.0548	24.30	0.01	0.750			
0.9858	63090.21	3.1360	3.1360	0.0535	24.30	0.01	0.750			
0.9859	63100.35	3.1330	3.1331	0.0521	24.30	0.01	0.750			
0.9861	63110.21	3.1300	3.1300	0.0507	24.30	0.01	0.750			
0.9862	63119.90	3.1270	3.1271	0.0493	24.30	0.01	0.750			
0.9864	63130.00	3.1240	3.1238	0.0470	24.30	0.01	0.750			
0.9865	63138.79	3.1210	3.1209	0.0446	24.30	0.01	0.750			
0.9867	63147.11	3.1180	3.1180	0.0421	24.30	0.01	0.750			
0.9868	63155.56	3.1150	3.1151	0.0407	24.30	0.01	0.750			
0.9869	63163.08	3.1120	3.1122	0.0377	24.30	0.01	0.750			
0.9870	63170.02	3.1090	3.1095	0.0347	24.30	0.01	0.750			
0.9871	63176.39	3.1060	3.1069	0.0317	24.30	0.01	0.750			
0.9872	63182.18	3.1030	3.1042	0.0286	24.30	0.01	0.750			
0.9873	63187.39	3.1000	3.1016	0.0256	24.30	0.01	0.750			
0.9874	63192.02	3.0970	3.0989	0.0226	24.30	0.01	0.750			
