Ah_balance (normalized)	Ah_balance (mAh)	Voltage - fit (V)	Voltage -  interpolate (V)	dQ/dV (1/V)	Temperature (°C)	Temperature - diff (°C)	Current (C)	R_DC 0ms (mOhm)	R_DC 50ms (mOhm)	R_DC 50 ms PEC (mOhm)
0.1125	7199.45	4.0790	4.0790	0.8059	7.38	1.40	0.750			
0.1149	7354.27	4.0760	4.0760	0.8053	7.38	1.40	0.750			
0.1173	7508.66	4.0730	4.0730	0.8044	7.37	1.39	0.750			
0.1197	7662.65	4.0700	4.0700	0.8060	7.37	1.39	0.750			
0.1222	7817.62	4.0670	4.0670	0.8035	7.36	1.38	0.750			
0.1245	7971.14	4.0640	4.0640	0.8100	7.36	1.38	0.750			
0.1270	8126.36	4.0610	4.0610	0.8148	7.36	1.38	0.750			
0.1294	8283.21	4.0580	4.0580	0.8187	7.35	1.37	0.750			
0.1319	8441.26	4.0550	4.0549	0.8250	7.35	1.37	0.750			
0.1344	8601.71	4.0520	4.0521	0.8207	7.34	1.36	0.750			
0.1369	8759.55	4.0490	4.0491	0.8242	7.34	1.36	0.750			
0.1393	8917.81	4.0460	4.0460	0.8278	7.34	1.36	0.750			
0.1418	9075.85	4.0430	4.0430	0.8265	7.33	1.35	0.750			
0.1443	9233.63	4.0400	4.0400	0.8299	7.33	1.35	0.750			
0.1468	9393.96	4.0370	4.0371	0.8303	7.32	1.34	0.750			
0.1493	9554.45	4.0340	4.0341	0.8358	7.32	1.34	0.750			
0.1518	9715.99	4.0310	4.0310	0.8408	7.32	1.34	0.750			
0.1543	9876.55	4.0280	4.0279	0.8403	7.31	1.33	0.750			
0.1568	10037.61	4.0250	4.0251	0.8428	7.31	1.33	0.750			
0.1594	10201.58	4.0220	4.0220	0.8430	7.30	1.32	0.750			
0.1619	10363.48	4.0190	4.0190	0.8481	7.30	1.32	0.750			
0.1645	10526.95	4.0160	4.0160	0.8524	7.29	1.31	0.750			
0.1670	10689.59	4.0130	4.0130	0.8546	7.28	1.30	0.750			
0.1696	10854.07	4.0100	4.0100	0.8573	7.28	1.30	0.750			
0.1722	11020.32	4.0070	4.0071	0.8579	7.27	1.29	0.750			
0.1748	11184.63	4.0040	4.0040	0.8622	7.27	1.29	0.750			
0.1774	11351.49	4.0010	4.0011	0.8670	7.26	1.28	0.750			
0.1799	11515.75	3.9980	3.9979	0.8665	7.25	1.27	0.750			
0.1825	11682.73	3.9950	3.9950	0.8725	7.25	1.27	0.750			
0.1852	11850.73	3.9920	3.9921	0.8756	7.25	1.27	0.750			
0.1878	12019.97	3.9890	3.9890	0.8804	7.25	1.27	0.750			
0.1905	12191.45	3.9860	3.9860	0.8851	7.25	1.27	0.750			
0.1931	12359.73	3.9830	3.9829	0.8844	7.25	1.27	0.750			
0.1958	12530.81	3.9800	3.9800	0.8836	7.25	1.27	0.750			
0.1984	12699.89	3.9770	3.9770	0.8858	7.24	1.26	0.750			
0.2011	12869.10	3.9740	3.9740	0.8921	7.24	1.26	0.750			
0.2038	13040.88	3.9710	3.9710	0.8976	7.23	1.25	0.750			
0.2065	13213.54	3.9680	3.9679	0.9012	7.23	1.25	0.750			
0.2092	13388.22	3.9650	3.9650	0.9014	7.22	1.24	0.750			
0.2119	13560.83	3.9620	3.9621	0.9092	7.22	1.24	0.750			
0.2146	13736.05	3.9590	3.9590	0.9177	7.22	1.24	0.750			
0.2174	13911.83	3.9560	3.9559	0.9194	7.21	1.23	0.750			
0.2201	14089.24	3.9530	3.9531	0.9242	7.21	1.23	0.750			
0.2229	14267.74	3.9500	3.9500	0.9333	7.20	1.22	0.750			
0.2257	14447.80	3.9470	3.9471	0.9414	7.20	1.22	0.750			
0.2286	14630.28	3.9440	3.9440	0.9480	7.19	1.21	0.750			
0.2314	14811.31	3.9410	3.9410	0.9495	7.19	1.21	0.750			
0.2343	14994.47	3.9380	3.9380	0.9558	7.18	1.20	0.750			
0.2372	15178.64	3.9350	3.9350	0.9648	7.17	1.19	0.750			
0.2401	15364.23	3.9320	3.9320	0.9713	7.16	1.18	0.750			
0.2430	15550.80	3.9290	3.9290	0.9777	7.15	1.17	0.750			
0.2459	15739.55	3.9260	3.9260	0.9820	7.15	1.17	0.750			
0.2489	15928.90	3.9230	3.9230	0.9914	7.14	1.16	0.750			
0.2519	16120.03	3.9200	3.9200	1.0007	7.14	1.16	0.750			
0.2549	16312.00	3.9170	3.9170	1.0091	7.13	1.15	0.750			
0.2579	16506.34	3.9140	3.9140	1.0207	7.13	1.15	0.750			
0.2610	16703.55	3.9110	3.9110	1.0326	7.12	1.14	0.750			
0.2641	16903.56	3.9080	3.9080	1.0435	7.11	1.13	0.750			
0.2673	17106.79	3.9050	3.9050	1.0534	7.10	1.12	0.750			
0.2705	17309.90	3.9020	3.9020	1.0515	7.10	1.12	0.750			
0.2736	17511.09	3.8990	3.8990	1.0652	7.09	1.11	0.750			
0.2768	17714.85	3.8960	3.8960	1.0797	7.08	1.10	0.750			
0.2800	17922.08	3.8930	3.8929	1.0909	7.07	1.09	0.750			
0.2833	18132.83	3.8900	3.8901	1.0988	7.06	1.08	0.750			
0.2866	18345.46	3.8870	3.8870	1.1139	7.05	1.07	0.750			
0.2900	18560.40	3.8840	3.8842	1.1308	7.04	1.06	0.750			
0.2934	18780.02	3.8810	3.8807	1.1450	7.03	1.05	0.750			
0.2969	18998.55	3.8780	3.8781	1.1568	7.02	1.04	0.750			
0.3004	19222.62	3.8750	3.8750	1.1754	7.01	1.03	0.750			
0.3039	19451.39	3.8720	3.8720	1.1961	7.00	1.02	0.750			
0.3075	19681.92	3.8690	3.8690	1.2050	6.99	1.01	0.750			
0.3112	19914.06	3.8660	3.8660	1.2258	6.98	1.00	0.750			
0.3149	20150.75	3.8630	3.8630	1.2454	6.97	0.99	0.750			
0.3186	20392.43	3.8600	3.8599	1.2648	6.96	0.98	0.750			
0.3224	20635.51	3.8570	3.8570	1.2857	6.94	0.96	0.750			
0.3263	20884.40	3.8540	3.8540	1.3093	6.93	0.95	0.750			
0.3303	21138.33	3.8510	3.8509	1.3336	6.91	0.93	0.750			
0.3343	21395.50	3.8480	3.8480	1.3575	6.90	0.92	0.750			
0.3384	21657.65	3.8450	3.8450	1.3890	6.89	0.91	0.750			
0.3426	21927.83	3.8420	3.8420	1.4221	6.88	0.90	0.750			
0.3469	22203.67	3.8390	3.8389	1.4507	6.87	0.89	0.750			
0.3514	22488.36	3.8360	3.8359	1.4792	6.85	0.87	0.750	0.448	1.037	
0.3559	22776.79	3.8330	3.8329	1.4978	6.83	0.85	0.750			
0.3604	23066.57	3.8300	3.8300	1.5227	6.82	0.84	0.750			
0.3650	23357.48	3.8270	3.8271	1.5539	6.80	0.82	0.750			
0.3697	23658.82	3.8240	3.8240	1.5782	6.79	0.81	0.750			
0.3744	23963.98	3.8210	3.8210	1.6204	6.77	0.79	0.750			
0.3794	24278.40	3.8180	3.8181	1.6659	6.76	0.78	0.750			
0.3845	24606.60	3.8150	3.8148	1.6984	6.74	0.76	0.750			
0.3896	24934.35	3.8120	3.8120	1.7304	6.72	0.74	0.750			
0.3948	25270.35	3.8090	3.8091	1.7677	6.71	0.73	0.750			
0.4002	25615.89	3.8060	3.8059	1.8036	6.69	0.71	0.750			
0.4056	25959.90	3.8030	3.8030	1.8612	6.67	0.69	0.750			
0.4113	26320.58	3.8000	3.8000	1.9049	6.65	0.67	0.750			
0.4170	26690.88	3.7970	3.7971	1.9334	6.63	0.65	0.750			
0.4230	27071.96	3.7940	3.7940	2.0078	6.60	0.62	0.750			
0.4291	27463.46	3.7910	3.7911	2.0193	6.58	0.60	0.750			
0.4352	27851.29	3.7880	3.7880	2.0513	6.56	0.58	0.750			
0.4414	28250.87	3.7850	3.7849	2.0880	6.54	0.56	0.750			
0.4477	28652.40	3.7820	3.7821	2.1017	6.51	0.53	0.750			
0.4539	29052.61	3.7790	3.7790	2.1356	6.48	0.50	0.750			
0.4605	29469.72	3.7760	3.7759	2.1741	6.46	0.48	0.750			
0.4670	29887.91	3.7730	3.7731	2.2099	6.43	0.45	0.750			
0.4737	30317.45	3.7700	3.7700	2.2372	6.40	0.42	0.750			
0.4804	30746.21	3.7670	3.7670	2.2771	6.37	0.39	0.750			
0.4873	31188.63	3.7640	3.7639	2.3307	6.35	0.37	0.750			
0.4944	31641.40	3.7610	3.7611	2.3502	6.33	0.35	0.750			
0.5016	32101.20	3.7580	3.7580	2.3886	6.30	0.32	0.750			
0.5086	32552.91	3.7550	3.7549	2.4031	6.28	0.30	0.750			
0.5159	33018.66	3.7520	3.7519	2.4705	6.24	0.26	0.750			
0.5234	33495.49	3.7490	3.7491	2.5368	6.21	0.23	0.750			
0.5311	33993.17	3.7460	3.7462	2.6138	6.19	0.21	0.750			
0.5392	34506.34	3.7430	3.7430	2.7234	6.16	0.18	0.750			
0.5474	35033.07	3.7400	3.7400	2.8099	6.14	0.16	0.750			
0.5561	35587.41	3.7370	3.7368	2.9203	6.11	0.13	0.750			
0.5649	36153.95	3.7340	3.7340	2.9909	6.08	0.10	0.750			
0.5741	36742.29	3.7310	3.7309	3.0609	6.06	0.08	0.750			
0.5834	37340.28	3.7280	3.7279	3.0349	6.04	0.06	0.750			
0.5925	37921.85	3.7250	3.7250	2.9219	6.01	0.03	0.750			
0.6012	38474.86	3.7220	3.7220	2.7536	6.00	0.02	0.750			
0.6092	38986.76	3.7190	3.7190	2.5130	5.98	0.00	0.750			
0.6162	39439.68	3.7160	3.7161	2.2359	5.97	-0.01	0.750			
0.6225	39838.41	3.7130	3.7129	1.9570	5.96	-0.02	0.750			
0.6279	40184.36	3.7100	3.7101	1.7219	5.95	-0.03	0.750			
0.6327	40490.16	3.7070	3.7070	1.5153	5.95	-0.03	0.750			
0.6367	40748.17	3.7040	3.7040	1.3381	5.95	-0.03	0.750			
0.6403	40978.73	3.7010	3.7009	1.1846	5.95	-0.03	0.750			
0.6435	41184.75	3.6980	3.6980	1.0707	5.95	-0.03	0.750			
0.6465	41377.76	3.6950	3.6950	0.9879	5.95	-0.03	0.750			
0.6493	41555.39	3.6920	3.6920	0.9197	5.96	-0.02	0.750			
0.6520	41725.14	3.6890	3.6890	0.8673	5.96	-0.02	0.750			
0.6545	41885.62	3.6860	3.6859	0.8147	5.97	-0.01	0.750			
0.6569	42039.08	3.6830	3.6829	0.7644	5.97	-0.01	0.750			
0.6591	42182.51	3.6800	3.6800	0.7127	5.97	-0.01	0.750			
0.6612	42315.43	3.6770	3.6770	0.6564	5.97	-0.01	0.750			
0.6630	42435.20	3.6740	3.6740	0.5990	5.98	-0.00	0.750			
0.6647	42543.18	3.6710	3.6709	0.5420	5.98	-0.00	0.750			
0.6663	42640.89	3.6680	3.6679	0.4924	5.98	-0.00	0.750			
0.6676	42729.23	3.6650	3.6650	0.4453	5.98	-0.00	0.750			
0.6689	42809.98	3.6620	3.6620	0.4036	5.98	0.00	0.750			
0.6701	42883.54	3.6590	3.6590	0.3643	5.98	0.00	0.750			
0.6711	42949.58	3.6560	3.6560	0.3252	5.98	0.00	0.750			
0.6720	43008.03	3.6530	3.6530	0.2883	5.98	0.00	0.750			
0.6728	43060.37	3.6500	3.6499	0.2499	5.98	0.00	0.750			
0.6735	43104.83	3.6470	3.6469	0.2121	5.98	0.00	0.750			
0.6741	43142.13	3.6440	3.6441	0.1740	5.98	0.00	0.750			
0.6746	43172.33	3.6410	3.6412	0.1359	5.98	0.00	0.750			
0.6749	43195.26	3.6380	3.6384	0.0965	5.99	0.01	0.750			
0.6752	43211.57	3.6350	3.6352	0.0549	5.99	0.01	0.750			
0.6752	43215.93	3.6290	3.6330	-0.0322	5.99	0.01	0.750			
0.6753	43217.93	3.6320	3.6218	0.0113	5.99	0.01	0.750			
