Ah_balance (normalized)	Ah_balance (mAh)	Voltage - fit (V)	Voltage -  interpolate (V)	dQ/dV (1/V)	Temperature (°C)	Temperature - diff (°C)	Current (C)	R_DC 0ms (mOhm)	R_DC 50ms (mOhm)	R_DC 50 ms PEC (mOhm)
0.1887	12075.76	4.0820	4.0820	0.8021	7.42	1.43	0.750			
0.1911	12229.49	4.0790	4.0791	0.8030	7.41	1.42	0.750			
0.1935	12384.54	4.0760	4.0760	0.8089	7.41	1.42	0.750			
0.1960	12542.04	4.0730	4.0729	0.8107	7.41	1.42	0.750			
0.1984	12696.88	4.0700	4.0700	0.8136	7.40	1.41	0.750			
0.2008	12852.79	4.0670	4.0670	0.8190	7.40	1.41	0.750			
0.2033	13010.66	4.0640	4.0641	0.8204	7.39	1.40	0.750			
0.2058	13168.40	4.0610	4.0608	0.8236	7.39	1.40	0.750			
0.2082	13326.22	4.0580	4.0580	0.8284	7.39	1.40	0.750			
0.2107	13487.14	4.0550	4.0550	0.8260	7.39	1.40	0.750			
0.2132	13644.71	4.0520	4.0520	0.8292	7.38	1.39	0.750			
0.2157	13803.02	4.0490	4.0491	0.8304	7.38	1.39	0.750			
0.2182	13962.72	4.0460	4.0457	0.8396	7.38	1.39	0.750			
0.2207	14125.29	4.0430	4.0430	0.8438	7.38	1.39	0.750			
0.2233	14288.14	4.0400	4.0401	0.8453	7.38	1.39	0.750			
0.2258	14452.29	4.0370	4.0370	0.8533	7.38	1.39	0.750			
0.2284	14616.14	4.0340	4.0341	0.8490	7.38	1.39	0.750			
0.2309	14779.35	4.0310	4.0309	0.8502	7.38	1.39	0.750			
0.2335	14942.86	4.0280	4.0280	0.8528	7.38	1.39	0.750			
0.2360	15106.28	4.0250	4.0250	0.8544	7.37	1.38	0.750			
0.2386	15271.77	4.0220	4.0220	0.8591	7.37	1.38	0.750			
0.2412	15437.65	4.0190	4.0190	0.8636	7.36	1.37	0.750			
0.2438	15602.66	4.0160	4.0161	0.8633	7.36	1.37	0.750			
0.2464	15771.11	4.0130	4.0130	0.8605	7.35	1.36	0.750			
0.2490	15934.75	4.0100	4.0100	0.8671	7.35	1.36	0.750			
0.2516	16100.15	4.0070	4.0071	0.8747	7.35	1.36	0.750			
0.2542	16268.63	4.0040	4.0040	0.8783	7.34	1.35	0.750			
0.2568	16437.38	4.0010	4.0010	0.8837	7.34	1.35	0.750			
0.2595	16608.78	3.9980	3.9981	0.8884	7.33	1.34	0.750			
0.2622	16780.74	3.9950	3.9951	0.8943	7.33	1.34	0.750			
0.2649	16956.22	3.9920	3.9919	0.8984	7.32	1.33	0.750			
0.2676	17125.28	3.9890	3.9890	0.8900	7.32	1.33	0.750			
0.2702	17295.78	3.9860	3.9860	0.8908	7.31	1.32	0.750			
0.2729	17466.94	3.9830	3.9830	0.8975	7.31	1.32	0.750			
0.2756	17638.47	3.9800	3.9799	0.9014	7.30	1.31	0.750			
0.2783	17812.84	3.9770	3.9770	0.9034	7.30	1.31	0.750			
0.2811	17987.45	3.9740	3.9742	0.9084	7.29	1.30	0.750			
0.2838	18165.95	3.9710	3.9710	0.9001	7.28	1.29	0.750			
0.2865	18336.07	3.9680	3.9681	0.9084	7.28	1.29	0.750			
0.2892	18508.45	3.9650	3.9651	0.9171	7.28	1.29	0.750			
0.2919	18683.02	3.9620	3.9620	0.9250	7.27	1.28	0.750			
0.2947	18863.22	3.9590	3.9591	0.9370	7.27	1.28	0.750			
0.2976	19047.15	3.9560	3.9561	0.9502	7.26	1.27	0.750			
0.3005	19230.75	3.9530	3.9530	0.9560	7.26	1.27	0.750			
0.3034	19418.38	3.9500	3.9501	0.9672	7.25	1.26	0.750			
0.3063	19600.26	3.9470	3.9470	0.9618	7.25	1.26	0.750			
0.3092	19785.98	3.9440	3.9440	0.9649	7.24	1.25	0.750			
0.3120	19970.65	3.9410	3.9411	0.9689	7.23	1.24	0.750			
0.3150	20156.90	3.9380	3.9380	0.9772	7.23	1.24	0.750			
0.3179	20345.21	3.9350	3.9349	0.9859	7.22	1.23	0.750			
0.3209	20535.42	3.9320	3.9320	0.9862	7.21	1.22	0.750			
0.3238	20724.92	3.9290	3.9290	0.9933	7.21	1.22	0.750			
0.3268	20917.86	3.9260	3.9260	1.0016	7.20	1.21	0.750			
0.3298	21109.85	3.9230	3.9228	1.0102	7.19	1.20	0.750			
0.3329	21305.39	3.9200	3.9200	1.0102	7.18	1.19	0.750			
0.3359	21497.99	3.9170	3.9170	1.0268	7.17	1.18	0.750			
0.3390	21695.07	3.9140	3.9141	1.0445	7.16	1.17	0.750			
0.3422	21898.93	3.9110	3.9109	1.0635	7.15	1.16	0.750			
0.3454	22104.34	3.9080	3.9080	1.0661	7.14	1.15	0.750			
0.3486	22310.68	3.9050	3.9051	1.0829	7.14	1.15	0.750			
0.3519	22520.73	3.9020	3.9021	1.0909	7.13	1.14	0.750			
0.3552	22734.37	3.8990	3.8987	1.0978	7.12	1.13	0.750			
0.3585	22941.19	3.8960	3.8961	1.1014	7.11	1.12	0.750			
0.3618	23152.29	3.8930	3.8931	1.1147	7.10	1.11	0.750			
0.3651	23366.46	3.8900	3.8900	1.1384	7.10	1.11	0.750			
0.3685	23586.15	3.8870	3.8870	1.1516	7.09	1.10	0.750			
0.3720	23808.50	3.8840	3.8840	1.1731	7.08	1.09	0.750			
0.3756	24038.54	3.8810	3.8811	1.2068	7.07	1.08	0.750			
0.3793	24274.84	3.8780	3.8780	1.2236	7.05	1.06	0.750			
0.3830	24511.70	3.8750	3.8749	1.2336	7.04	1.05	0.750			
0.3867	24751.32	3.8720	3.8720	1.2467	7.03	1.04	0.750			
0.3905	24992.97	3.8690	3.8691	1.2476	7.02	1.03	0.750			
0.3943	25233.44	3.8660	3.8659	1.2648	7.01	1.02	0.750			
0.3980	25470.98	3.8630	3.8631	1.2812	6.99	1.00	0.750			
0.4018	25717.64	3.8600	3.8599	1.3031	6.98	0.99	0.750			
0.4058	25970.64	3.8570	3.8568	1.3232	6.97	0.98	0.750			
0.4098	26225.42	3.8540	3.8542	1.3596	6.96	0.97	0.750			
0.4139	26491.42	3.8510	3.8511	1.3935	6.94	0.95	0.750			
0.4182	26762.03	3.8480	3.8479	1.4330	6.93	0.94	0.750	0.460	1.096	
0.4225	27037.70	3.8450	3.8451	1.4496	6.92	0.93	0.750			
0.4270	27326.73	3.8420	3.8421	1.4847	6.90	0.91	0.750			
0.4315	27618.39	3.8390	3.8390	1.5007	6.89	0.90	0.750			
0.4360	27905.99	3.8360	3.8360	1.5089	6.87	0.88	0.750			
0.4405	28192.87	3.8330	3.8333	1.5237	6.86	0.87	0.750			
0.4451	28487.23	3.8300	3.8300	1.5586	6.84	0.85	0.750			
0.4498	28784.12	3.8270	3.8271	1.5821	6.83	0.84	0.750			
0.4545	29086.34	3.8240	3.8240	1.6335	6.81	0.82	0.750			
0.4596	29411.54	3.8210	3.8210	1.6781	6.79	0.80	0.750			
0.4647	29741.79	3.8180	3.8180	1.7286	6.77	0.78	0.750			
0.4700	30081.31	3.8150	3.8151	1.7652	6.75	0.76	0.750			
0.4754	30426.02	3.8120	3.8119	1.7920	6.73	0.74	0.750			
0.4808	30773.98	3.8090	3.8089	1.8098	6.71	0.72	0.750			
0.4862	31118.08	3.8060	3.8062	1.8458	6.69	0.70	0.750			
0.4918	31475.15	3.8030	3.8030	1.8784	6.66	0.67	0.750			
0.4976	31847.03	3.8000	3.7999	1.9449	6.64	0.65	0.750			
0.5035	32221.87	3.7970	3.7971	2.0138	6.62	0.63	0.750			
0.5096	32615.92	3.7940	3.7939	2.0561	6.60	0.61	0.750			
0.5159	33019.36	3.7910	3.7911	2.0702	6.58	0.59	0.750			
0.5222	33420.93	3.7880	3.7879	2.0839	6.55	0.56	0.750			
0.5284	33819.02	3.7850	3.7850	2.1089	6.53	0.54	0.750			
0.5348	34224.09	3.7820	3.7820	2.1690	6.50	0.51	0.750			
0.5412	34639.67	3.7790	3.7791	2.2429	6.48	0.49	0.750			
0.5481	35081.45	3.7760	3.7760	2.3503	6.45	0.46	0.750			
0.5554	35546.84	3.7730	3.7730	2.3752	6.43	0.44	0.750			
0.5627	36010.52	3.7700	3.7701	2.4014	6.40	0.41	0.750			
0.5698	36468.56	3.7670	3.7669	2.3824	6.36	0.37	0.750			
0.5769	36921.97	3.7640	3.7641	2.3745	6.34	0.35	0.750			
0.5841	37381.93	3.7610	3.7610	2.4638	6.32	0.33	0.750			
0.5915	37853.32	3.7580	3.7579	2.5318	6.29	0.30	0.750			
0.5993	38353.23	3.7550	3.7551	2.6334	6.25	0.26	0.750			
0.6074	38872.92	3.7520	3.7521	2.7395	6.21	0.22	0.750			
0.6157	39402.08	3.7490	3.7490	2.7690	6.18	0.19	0.750			
0.6242	39946.11	3.7460	3.7460	2.9521	6.15	0.16	0.750			
0.6333	40533.17	3.7430	3.7428	3.0542	6.12	0.13	0.750			
0.6427	41135.70	3.7400	3.7400	3.1206	6.09	0.10	0.750			
0.6518	41712.89	3.7370	3.7372	3.2258	6.05	0.06	0.750			
0.6622	42378.30	3.7340	3.7339	3.4221	6.03	0.04	0.750			
0.6728	43060.21	3.7310	3.7310	3.4491	6.01	0.02	0.750			
0.6826	43684.25	3.7280	3.7279	3.0789	5.99	-0.00	0.750			
0.6916	44259.37	3.7250	3.7250	2.7365	5.97	-0.02	0.750			
0.6989	44732.53	3.7220	3.7220	2.2798	5.97	-0.02	0.750			
0.7048	45109.46	3.7190	3.7189	1.8579	5.96	-0.03	0.750			
0.7096	45413.50	3.7160	3.7161	1.5435	5.96	-0.03	0.750			
0.7137	45673.83	3.7130	3.7131	1.3087	5.95	-0.04	0.750			
0.7170	45890.75	3.7100	3.7099	1.1179	5.95	-0.04	0.750			
0.7200	46082.34	3.7070	3.7069	0.9910	5.95	-0.04	0.750			
0.7227	46252.20	3.7040	3.7040	0.8736	5.96	-0.03	0.750			
0.7252	46410.30	3.7010	3.7010	0.7960	5.96	-0.03	0.750			
0.7275	46557.26	3.6980	3.6980	0.7287	5.97	-0.02	0.750			
0.7294	46684.38	3.6950	3.6950	0.6618	5.97	-0.02	0.750			
0.7313	46804.83	3.6920	3.6920	0.6049	5.97	-0.02	0.750			
0.7330	46913.61	3.6890	3.6889	0.5483	5.97	-0.02	0.750			
0.7346	47015.03	3.6860	3.6860	0.5011	5.98	-0.01	0.750			
0.7361	47107.93	3.6830	3.6831	0.4549	5.98	-0.01	0.750			
0.7373	47189.39	3.6800	3.6800	0.4022	5.98	-0.01	0.750			
0.7385	47260.94	3.6770	3.6769	0.3545	5.98	-0.01	0.750			
0.7394	47323.24	3.6740	3.6740	0.3113	5.98	-0.01	0.750			
0.7403	47378.03	3.6710	3.6710	0.2692	5.99	-0.00	0.750			
0.7410	47425.53	3.6680	3.6678	0.2294	5.99	-0.00	0.750			
0.7416	47465.26	3.6650	3.6649	0.1899	5.99	-0.00	0.750			
0.7422	47498.02	3.6620	3.6622	0.1524	5.99	-0.00	0.750			
0.7426	47523.77	3.6590	3.6594	0.1151	5.99	-0.00	0.750			
0.7429	47543.49	3.6560	3.6566	0.0723	5.99	-0.00	0.750			
0.7430	47553.30	3.6530	3.6545	0.0199	5.99	0.00	0.750			
