Ah_balance (normalized)	Ah_balance (mAh)	Voltage - fit (V)	Voltage -  interpolate (V)	dQ/dV (1/V)	Temperature (°C)	Temperature - diff (°C)	Current (C)	R_DC 0ms (mOhm)	R_DC 50ms (mOhm)	R_DC 50 ms PEC (mOhm)
0.0940	6014.16	4.0090	4.0083	-0.0639	5.99	0.02	-0.750			
0.0942	6029.71	4.0060	4.0057	-0.0959	5.99	0.02	-0.750			
0.0946	6051.32	4.0030	4.0029	-0.1256	5.98	0.01	-0.750			
0.0950	6078.18	4.0000	4.0000	-0.1542	5.98	0.01	-0.750			
0.0955	6110.75	3.9970	3.9970	-0.1811	5.98	0.01	-0.750			
0.0961	6148.50	3.9940	3.9940	-0.2050	5.98	0.01	-0.750			
0.0967	6191.43	3.9910	3.9910	-0.2308	5.98	0.01	-0.750			
0.0975	6237.59	3.9880	3.9881	-0.2558	5.98	0.01	-0.750			
0.0983	6288.97	3.9850	3.9850	-0.2791	5.98	0.01	-0.750			
0.0991	6344.56	3.9820	3.9820	-0.3036	5.97	0.00	-0.750			
0.1001	6404.96	3.9790	3.9790	-0.3282	5.97	0.00	-0.750			
0.1011	6470.78	3.9760	3.9759	-0.3526	5.97	-0.00	-0.750			
0.1022	6541.09	3.9730	3.9730	-0.3767	5.97	-0.00	-0.750			
0.1034	6615.30	3.9700	3.9701	-0.4023	5.96	-0.01	-0.750			
0.1046	6694.37	3.9670	3.9671	-0.4276	5.96	-0.01	-0.750			
0.1059	6779.36	3.9640	3.9639	-0.4553	5.96	-0.01	-0.750			
0.1073	6868.70	3.9610	3.9610	-0.4791	5.95	-0.02	-0.750			
0.1088	6964.00	3.9580	3.9580	-0.5035	5.95	-0.02	-0.750			
0.1104	7064.28	3.9550	3.9550	-0.5283	5.95	-0.02	-0.750			
0.1120	7168.04	3.9520	3.9519	-0.5474	5.94	-0.03	-0.750			
0.1137	7275.19	3.9490	3.9491	-0.5654	5.94	-0.03	-0.750			
0.1154	7385.49	3.9460	3.9460	-0.5861	5.93	-0.04	-0.750			
0.1172	7499.90	3.9430	3.9430	-0.6026	5.93	-0.04	-0.750			
0.1190	7616.53	3.9400	3.9401	-0.6203	5.93	-0.04	-0.750			
0.1209	7739.06	3.9370	3.9370	-0.6392	5.92	-0.05	-0.750			
0.1229	7863.98	3.9340	3.9339	-0.6520	5.92	-0.05	-0.750			
0.1249	7991.19	3.9310	3.9311	-0.6669	5.91	-0.06	-0.750			
0.1269	8120.88	3.9280	3.9280	-0.6753	5.91	-0.06	-0.750			
0.1289	8251.67	3.9250	3.9249	-0.6846	5.91	-0.06	-0.750			
0.1310	8384.42	3.9220	3.9220	-0.6962	5.91	-0.06	-0.750			
0.1331	8516.97	3.9190	3.9190	-0.7034	5.90	-0.07	-0.750			
0.1352	8654.66	3.9160	3.9159	-0.7135	5.90	-0.07	-0.750			
0.1374	8793.08	3.9130	3.9131	-0.7230	5.90	-0.07	-0.750			
0.1396	8932.47	3.9100	3.9100	-0.7281	5.90	-0.07	-0.750			
0.1418	9074.02	3.9070	3.9070	-0.7369	5.90	-0.07	-0.750			
0.1440	9215.56	3.9040	3.9040	-0.7430	5.90	-0.07	-0.750			
0.1462	9358.65	3.9010	3.9010	-0.7455	5.91	-0.06	-0.750			
0.1485	9503.36	3.8980	3.8980	-0.7504	5.91	-0.06	-0.750			
0.1508	9648.74	3.8950	3.8951	-0.7528	5.91	-0.06	-0.750			
0.1530	9793.01	3.8920	3.8920	-0.7517	5.91	-0.06	-0.750			
0.1553	9937.64	3.8890	3.8890	-0.7568	5.92	-0.05	-0.750			
0.1575	10082.28	3.8860	3.8860	-0.7581	5.92	-0.05	-0.750			
0.1598	10227.69	3.8830	3.8829	-0.7633	5.92	-0.05	-0.750			
0.1621	10374.32	3.8800	3.8801	-0.7701	5.93	-0.04	-0.750			
0.1644	10523.06	3.8770	3.8769	-0.7741	5.93	-0.04	-0.750			
0.1668	10672.09	3.8740	3.8740	-0.7796	5.93	-0.04	-0.750			
0.1691	10823.12	3.8710	3.8710	-0.7814	5.93	-0.04	-0.750			
0.1715	10973.10	3.8680	3.8680	-0.7803	5.94	-0.03	-0.750			
0.1738	11124.60	3.8650	3.8650	-0.7853	5.94	-0.03	-0.750			
0.1762	11275.03	3.8620	3.8621	-0.7826	5.94	-0.03	-0.750			
0.1785	11424.22	3.8590	3.8590	-0.7864	5.94	-0.03	-0.750			
0.1809	11576.47	3.8560	3.8560	-0.7926	5.94	-0.03	-0.750			
0.1833	11728.95	3.8530	3.8530	-0.7921	5.95	-0.02	-0.750			
0.1857	11882.70	3.8500	3.8499	-0.7938	5.95	-0.02	-0.750			
0.1880	12034.25	3.8470	3.8473	-0.7956	5.95	-0.02	-0.750			
0.1904	12186.93	3.8440	3.8439	-0.7941	5.96	-0.01	-0.750			
0.1928	12340.07	3.8410	3.8410	-0.7976	5.96	-0.01	-0.750			
0.1952	12491.98	3.8380	3.8380	-0.7937	5.97	0.00	-0.750			
0.1976	12646.90	3.8350	3.8350	-0.8010	5.98	0.01	-0.750			
0.2000	12799.87	3.8320	3.8321	-0.7986	5.99	0.02	-0.750			
0.2024	12952.47	3.8290	3.8289	-0.7983	5.99	0.02	-0.750			
0.2047	13103.28	3.8260	3.8259	-0.8030	6.00	0.03	-0.750			
0.2072	13258.65	3.8230	3.8230	-0.8007	6.00	0.03	-0.750			
0.2096	13412.03	3.8200	3.8199	-0.8016	6.00	0.03	-0.750			
0.2120	13568.85	3.8170	3.8171	-0.8081	6.01	0.04	-0.750			
0.2144	13724.26	3.8140	3.8139	-0.8069	6.01	0.04	-0.750			
0.2168	13877.08	3.8110	3.8109	-0.8121	6.02	0.05	-0.750			
0.2193	14034.98	3.8080	3.8080	-0.8089	6.02	0.05	-0.750			
0.2217	14190.01	3.8050	3.8049	-0.8019	6.02	0.05	-0.750			
0.2241	14345.23	3.8020	3.8020	-0.8072	6.03	0.06	-0.750			
0.2265	14498.84	3.7990	3.7991	-0.8045	6.03	0.06	-0.750			
0.2289	14651.10	3.7960	3.7959	-0.8109	6.03	0.06	-0.750			
0.2314	14806.56	3.7930	3.7929	-0.8134	6.03	0.06	-0.750			
0.2338	14963.06	3.7900	3.7900	-0.8097	6.04	0.07	-0.750			
0.2363	15122.45	3.7870	3.7870	-0.8161	6.04	0.07	-0.750			
0.2388	15280.70	3.7840	3.7841	-0.8175	6.04	0.07	-0.750			
0.2412	15435.48	3.7810	3.7809	-0.8128	6.05	0.08	-0.750			
0.2436	15590.54	3.7780	3.7780	-0.8141	6.05	0.08	-0.750			
0.2460	15746.96	3.7750	3.7750	-0.8111	6.06	0.09	-0.750			
0.2485	15904.29	3.7720	3.7720	-0.8141	6.06	0.09	-0.750			
0.2510	16060.92	3.7690	3.7692	-0.8128	6.07	0.10	-0.750			
0.2534	16216.13	3.7660	3.7659	-0.8119	6.07	0.10	-0.750			
0.2558	16371.52	3.7630	3.7630	-0.8116	6.08	0.11	-0.750			
0.2582	16526.11	3.7600	3.7600	-0.8091	6.08	0.11	-0.750			
0.2607	16683.24	3.7570	3.7570	-0.8152	6.09	0.12	-0.750			
0.2631	16839.98	3.7540	3.7541	-0.8112	6.09	0.12	-0.750			
0.2655	16994.69	3.7510	3.7509	-0.8128	6.09	0.12	-0.750			
0.2680	17149.85	3.7480	3.7481	-0.8187	6.10	0.13	-0.750			
0.2704	17306.51	3.7450	3.7450	-0.8206	6.10	0.13	-0.750			
0.2729	17466.60	3.7420	3.7420	-0.8277	6.11	0.14	-0.750			
0.2754	17625.53	3.7390	3.7391	-0.8305	6.11	0.14	-0.750			
0.2779	17786.39	3.7360	3.7360	-0.8303	6.11	0.14	-0.750			
0.2804	17945.64	3.7330	3.7330	-0.8340	6.12	0.15	-0.750			
0.2829	18103.96	3.7300	3.7300	-0.8361	6.12	0.15	-0.750			
0.2854	18264.04	3.7270	3.7269	-0.8345	6.13	0.16	-0.750			
0.2879	18425.55	3.7240	3.7240	-0.8407	6.13	0.16	-0.750			
0.2904	18586.89	3.7210	3.7211	-0.8450	6.14	0.17	-0.750			
0.2930	18750.10	3.7180	3.7179	-0.8509	6.14	0.17	-0.750			
0.2955	18914.83	3.7150	3.7149	-0.8557	6.15	0.18	-0.750			
0.2981	19079.11	3.7120	3.7120	-0.8535	6.15	0.18	-0.750			
0.3007	19243.27	3.7090	3.7092	-0.8596	6.16	0.19	-0.750			
0.3033	19408.90	3.7060	3.7060	-0.8685	6.16	0.19	-0.750			
0.3058	19574.32	3.7030	3.7030	-0.8714	6.16	0.19	-0.750			
0.3085	19741.82	3.7000	3.6999	-0.8793	6.17	0.20	-0.750			
0.3111	19912.64	3.6970	3.6970	-0.8899	6.17	0.20	-0.750			
0.3138	20083.51	3.6940	3.6941	-0.8954	6.17	0.20	-0.750			
0.3165	20256.49	3.6910	3.6910	-0.9101	6.18	0.21	-0.750			
0.3192	20431.88	3.6880	3.6880	-0.9136	6.18	0.21	-0.750			
0.3220	20607.90	3.6850	3.6849	-0.9191	6.18	0.21	-0.750			
0.3248	20785.39	3.6820	3.6821	-0.9315	6.19	0.22	-0.750			
0.3276	20964.48	3.6790	3.6791	-0.9427	6.19	0.22	-0.750			
0.3304	21146.34	3.6760	3.6760	-0.9547	6.20	0.23	-0.750			
0.3333	21331.06	3.6730	3.6729	-0.9626	6.20	0.23	-0.750			
0.3362	21515.26	3.6700	3.6700	-0.9700	6.21	0.24	-0.750			
0.3391	21704.24	3.6670	3.6670	-0.9870	6.21	0.24	-0.750			
0.3421	21894.06	3.6640	3.6641	-0.9952	6.22	0.25	-0.750			
0.3451	22083.69	3.6610	3.6610	-1.0081	6.22	0.25	-0.750			
0.3481	22278.93	3.6580	3.6579	-1.0228	6.23	0.26	-0.750			
0.3512	22477.12	3.6550	3.6551	-1.0393	6.23	0.26	-0.750			
0.3543	22678.29	3.6520	3.6520	-1.0549	6.23	0.26	-0.750			
0.3576	22885.01	3.6490	3.6490	-1.0654	6.23	0.26	-0.750			
0.3608	23090.69	3.6460	3.6459	-1.0743	6.23	0.26	-0.750			
0.3640	23296.95	3.6430	3.6431	-1.0872	6.23	0.26	-0.750			
0.3673	23506.98	3.6400	3.6400	-1.0916	6.24	0.27	-0.750			
0.3706	23717.64	3.6370	3.6369	-1.1034	6.24	0.27	-0.750			
0.3739	23930.94	3.6340	3.6340	-1.1084	6.25	0.28	-0.750			
0.3772	24143.47	3.6310	3.6310	-1.1235	6.25	0.28	-0.750			
0.3806	24359.66	3.6280	3.6279	-1.1406	6.26	0.29	-0.750			
0.3840	24578.15	3.6250	3.6251	-1.1599	6.26	0.29	-0.750			
0.3875	24801.36	3.6220	3.6220	-1.1814	6.27	0.30	-0.750			
0.3912	25034.23	3.6190	3.6189	-1.1986	6.27	0.30	-0.750			
0.3948	25267.27	3.6160	3.6160	-1.2121	6.27	0.30	-0.750			
0.3985	25501.44	3.6130	3.6130	-1.2275	6.27	0.30	-0.750			
0.4022	25738.17	3.6100	3.6101	-1.2297	6.27	0.30	-0.750			
0.4058	25972.45	3.6070	3.6069	-1.2565	6.27	0.30	-0.750			
0.4097	26217.69	3.6040	3.6039	-1.2662	6.27	0.30	-0.750			
0.4135	26463.51	3.6010	3.6011	-1.2822	6.27	0.30	-0.750			
0.4174	26713.39	3.5980	3.5973	-1.2961	6.27	0.30	-0.750	0.494	1.139	
0.4213	26962.53	3.5950	3.5950	-1.3169	6.27	0.30	-0.750			
0.4253	27216.84	3.5920	3.5921	-1.3333	6.27	0.30	-0.750			
0.4293	27473.73	3.5890	3.5889	-1.3497	6.28	0.31	-0.750			
0.4333	27730.95	3.5860	3.5860	-1.3667	6.28	0.31	-0.750			
0.4375	27999.00	3.5830	3.5832	-1.4079	6.29	0.32	-0.750			
0.4418	28272.69	3.5800	3.5799	-1.4266	6.29	0.32	-0.750			
0.4461	28552.78	3.5770	3.5769	-1.4465	6.28	0.31	-0.750			
0.4505	28831.51	3.5740	3.5742	-1.4576	6.28	0.31	-0.750			
0.4549	29113.52	3.5710	3.5710	-1.4711	6.28	0.31	-0.750			
0.4593	29396.59	3.5680	3.5680	-1.4929	6.29	0.32	-0.750			
0.4638	29684.14	3.5650	3.5650	-1.4985	6.29	0.32	-0.750			
0.4683	29970.93	3.5620	3.5620	-1.5210	6.29	0.32	-0.750			
0.4729	30266.77	3.5590	3.5590	-1.5349	6.29	0.32	-0.750			
0.4776	30566.65	3.5560	3.5560	-1.5469	6.29	0.32	-0.750			
0.4822	30863.93	3.5530	3.5530	-1.5700	6.29	0.32	-0.750			
0.4870	31168.15	3.5500	3.5498	-1.5755	6.29	0.32	-0.750			
0.4917	31467.85	3.5470	3.5469	-1.5973	6.29	0.32	-0.750			
0.4966	31780.49	3.5440	3.5442	-1.6232	6.29	0.32	-0.750			
0.5014	32091.85	3.5410	3.5409	-1.6352	6.29	0.32	-0.750			
0.5064	32408.47	3.5380	3.5383	-1.6477	6.29	0.32	-0.750			
0.5114	32729.75	3.5350	3.5349	-1.6584	6.29	0.32	-0.750			
0.5164	33047.41	3.5320	3.5320	-1.6860	6.30	0.33	-0.750			
0.5215	33374.78	3.5290	3.5288	-1.6870	6.30	0.33	-0.750			
0.5265	33696.03	3.5260	3.5260	-1.7011	6.31	0.34	-0.750			
0.5317	34026.04	3.5230	3.5230	-1.7182	6.31	0.34	-0.750			
0.5368	34357.54	3.5200	3.5199	-1.7224	6.31	0.34	-0.750			
0.5421	34691.95	3.5170	3.5169	-1.7172	6.31	0.34	-0.750			
0.5472	35018.19	3.5140	3.5139	-1.7378	6.31	0.34	-0.750			
0.5523	35350.18	3.5110	3.5109	-1.7266	6.31	0.34	-0.750			
0.5576	35686.45	3.5080	3.5079	-1.7317	6.32	0.35	-0.750			
0.5628	36020.03	3.5050	3.5052	-1.7263	6.33	0.36	-0.750			
0.5680	36349.40	3.5020	3.5019	-1.7202	6.33	0.36	-0.750			
0.5732	36686.14	3.4990	3.4990	-1.7216	6.33	0.36	-0.750			
0.5783	37010.34	3.4960	3.4962	-1.7053	6.33	0.36	-0.750			
0.5835	37341.11	3.4930	3.4930	-1.7264	6.34	0.37	-0.750			
0.5886	37670.60	3.4900	3.4901	-1.7044	6.35	0.38	-0.750			
0.5937	37997.20	3.4870	3.4873	-1.6925	6.36	0.39	-0.750			
0.5988	38324.56	3.4840	3.4840	-1.6830	6.38	0.41	-0.750			
0.6038	38643.23	3.4810	3.4808	-1.6575	6.39	0.42	-0.750			
0.6088	38964.93	3.4780	3.4777	-1.6321	6.40	0.43	-0.750			
0.6136	39271.15	3.4750	3.4752	-1.6195	6.41	0.44	-0.750			
0.6184	39579.49	3.4720	3.4722	-1.5915	6.42	0.45	-0.750			
0.6232	39883.36	3.4690	3.4688	-1.5826	6.43	0.46	-0.750			
0.6279	40185.09	3.4660	3.4658	-1.5599	6.45	0.48	-0.750			
0.6326	40487.09	3.4630	3.4631	-1.5573	6.46	0.49	-0.750			
0.6373	40784.61	3.4600	3.4603	-1.5334	6.47	0.50	-0.750			
0.6419	41084.52	3.4570	3.4568	-1.5029	6.48	0.51	-0.750			
0.6464	41368.95	3.4540	3.4538	-1.4662	6.50	0.53	-0.750			
0.6507	41646.56	3.4510	3.4511	-1.4468	6.51	0.54	-0.750			
0.6550	41920.22	3.4480	3.4479	-1.4188	6.52	0.55	-0.750			
0.6592	42190.66	3.4450	3.4448	-1.3930	6.54	0.57	-0.750			
0.6633	42453.67	3.4420	3.4423	-1.3736	6.55	0.58	-0.750			
0.6675	42717.39	3.4390	3.4390	-1.3563	6.56	0.59	-0.750			
0.6714	42972.06	3.4360	3.4359	-1.3490	6.58	0.61	-0.750			
0.6754	43228.47	3.4330	3.4332	-1.3297	6.59	0.62	-0.750			
0.6795	43486.90	3.4300	3.4299	-1.3154	6.61	0.64	-0.750			
0.6835	43741.21	3.4270	3.4268	-1.2771	6.63	0.66	-0.750			
0.6873	43986.74	3.4240	3.4243	-1.2365	6.65	0.68	-0.750			
0.6910	44222.77	3.4210	3.4209	-1.2081	6.66	0.69	-0.750			
0.6945	44447.31	3.4180	3.4179	-1.1631	6.67	0.70	-0.750			
0.6978	44658.58	3.4150	3.4149	-1.1064	6.68	0.71	-0.750			
0.7011	44870.17	3.4120	3.4123	-1.0861	6.69	0.72	-0.750			
0.7044	45078.87	3.4090	3.4089	-1.0605	6.71	0.74	-0.750			
0.7075	45279.69	3.4060	3.4060	-1.0304	6.72	0.75	-0.750			
0.7105	45472.45	3.4030	3.4030	-0.9990	6.74	0.77	-0.750			
0.7135	45662.22	3.4000	3.4000	-0.9739	6.75	0.78	-0.750			
0.7163	45845.62	3.3970	3.3970	-0.9503	6.77	0.80	-0.750			
0.7192	46026.10	3.3940	3.3940	-0.9216	6.78	0.81	-0.750			
0.7219	46200.07	3.3910	3.3910	-0.8905	6.79	0.82	-0.750			
0.7245	46369.43	3.3880	3.3880	-0.8673	6.80	0.83	-0.750			
0.7271	46532.41	3.3850	3.3850	-0.8420	6.82	0.85	-0.750			
0.7295	46690.73	3.3820	3.3819	-0.8146	6.83	0.86	-0.750			
0.7319	46844.76	3.3790	3.3790	-0.7913	6.84	0.87	-0.750			
0.7343	46993.02	3.3760	3.3761	-0.7817	6.85	0.88	-0.750			
0.7366	47140.78	3.3730	3.3729	-0.7517	6.86	0.89	-0.750			
