Ah_balance (normalized)	Ah_balance (mAh)	Voltage - fit (V)	Voltage -  interpolate (V)	dQ/dV (1/V)	Temperature (°C)	Temperature - diff (°C)	Current (C)	R_DC 0ms (mOhm)	R_DC 50ms (mOhm)	R_DC 50 ms PEC (mOhm)
0.0945	6045.48	4.0060	4.0055	-0.0622	5.99	0.00	-0.750			
0.0947	6060.33	4.0030	4.0030	-0.0915	5.99	0.00	-0.750			
0.0950	6082.13	4.0000	3.9997	-0.1191	5.99	0.00	-0.750			
0.0954	6108.12	3.9970	3.9967	-0.1430	5.99	0.00	-0.750			
0.0959	6137.85	3.9940	3.9940	-0.1667	5.99	0.00	-0.750			
0.0964	6172.16	3.9910	3.9914	-0.1892	5.99	-0.00	-0.750			
0.0971	6211.71	3.9880	3.9880	-0.2134	5.99	-0.00	-0.750			
0.0977	6254.45	3.9850	3.9850	-0.2363	5.99	-0.00	-0.750			
0.0985	6301.65	3.9820	3.9818	-0.2581	5.99	-0.00	-0.750			
0.0993	6353.09	3.9790	3.9790	-0.2798	5.99	-0.00	-0.750			
0.1001	6408.96	3.9760	3.9760	-0.3046	5.98	-0.01	-0.750			
0.1011	6470.02	3.9730	3.9731	-0.3271	5.98	-0.01	-0.750			
0.1021	6535.08	3.9700	3.9698	-0.3490	5.98	-0.01	-0.750			
0.1032	6604.82	3.9670	3.9670	-0.3670	5.98	-0.01	-0.750			
0.1043	6677.08	3.9640	3.9640	-0.3881	5.98	-0.01	-0.750			
0.1055	6754.31	3.9610	3.9610	-0.4063	5.98	-0.01	-0.750			
0.1068	6833.58	3.9580	3.9579	-0.4255	5.97	-0.02	-0.750			
0.1081	6916.01	3.9550	3.9550	-0.4442	5.97	-0.02	-0.750			
0.1094	7003.32	3.9520	3.9520	-0.4661	5.97	-0.02	-0.750			
0.1109	7095.59	3.9490	3.9489	-0.4844	5.97	-0.02	-0.750			
0.1124	7190.82	3.9460	3.9461	-0.5043	5.96	-0.03	-0.750			
0.1139	7289.75	3.9430	3.9430	-0.5169	5.96	-0.03	-0.750			
0.1155	7390.34	3.9400	3.9401	-0.5378	5.96	-0.03	-0.750			
0.1171	7495.10	3.9370	3.9370	-0.5486	5.96	-0.03	-0.750			
0.1188	7602.69	3.9340	3.9338	-0.5597	5.95	-0.04	-0.750			
0.1205	7711.54	3.9310	3.9310	-0.5712	5.95	-0.04	-0.750			
0.1222	7822.30	3.9280	3.9280	-0.5851	5.95	-0.04	-0.750			
0.1240	7936.44	3.9250	3.9249	-0.5936	5.95	-0.04	-0.750			
0.1258	8052.33	3.9220	3.9219	-0.6026	5.95	-0.04	-0.750			
0.1276	8166.44	3.9190	3.9191	-0.6093	5.95	-0.04	-0.750			
0.1295	8286.46	3.9160	3.9161	-0.6226	5.95	-0.04	-0.750			
0.1314	8408.32	3.9130	3.9129	-0.6303	5.95	-0.04	-0.750			
0.1333	8529.74	3.9100	3.9100	-0.6323	5.95	-0.04	-0.750			
0.1352	8650.50	3.9070	3.9070	-0.6388	5.95	-0.04	-0.750			
0.1371	8774.52	3.9040	3.9041	-0.6460	5.96	-0.03	-0.750			
0.1390	8898.19	3.9010	3.9009	-0.6544	5.96	-0.03	-0.750			
0.1410	9025.24	3.8980	3.8980	-0.6542	5.96	-0.03	-0.750			
0.1430	9152.73	3.8950	3.8950	-0.6582	5.96	-0.03	-0.750			
0.1450	9279.39	3.8920	3.8921	-0.6632	5.97	-0.02	-0.750			
0.1470	9407.38	3.8890	3.8889	-0.6681	5.97	-0.02	-0.750			
0.1490	9534.48	3.8860	3.8860	-0.6705	5.97	-0.02	-0.750			
0.1510	9661.96	3.8830	3.8831	-0.6785	5.98	-0.01	-0.750			
0.1530	9794.90	3.8800	3.8799	-0.6824	5.98	-0.01	-0.750			
0.1551	9928.66	3.8770	3.8770	-0.6897	5.98	-0.01	-0.750			
0.1572	10062.34	3.8740	3.8739	-0.6856	5.99	-0.00	-0.750			
0.1592	10191.56	3.8710	3.8713	-0.6902	5.99	0.00	-0.750			
0.1613	10326.08	3.8680	3.8679	-0.6885	5.99	0.00	-0.750			
0.1634	10455.77	3.8650	3.8649	-0.6922	6.00	0.01	-0.750			
0.1655	10589.23	3.8620	3.8622	-0.6915	6.00	0.01	-0.750			
0.1676	10723.54	3.8590	3.8589	-0.6939	6.00	0.01	-0.750			
0.1696	10856.77	3.8560	3.8560	-0.6930	6.01	0.02	-0.750			
0.1717	10989.47	3.8530	3.8533	-0.6939	6.01	0.02	-0.750			
0.1738	11120.26	3.8500	3.8501	-0.6932	6.02	0.03	-0.750			
0.1759	11254.52	3.8470	3.8469	-0.7017	6.02	0.03	-0.750			
0.1779	11387.55	3.8440	3.8441	-0.7006	6.03	0.04	-0.750			
0.1801	11525.72	3.8410	3.8410	-0.7049	6.04	0.05	-0.750			
0.1823	11664.18	3.8380	3.8379	-0.7000	6.04	0.05	-0.750			
0.1843	11795.63	3.8350	3.8352	-0.7036	6.05	0.06	-0.750			
0.1864	11928.52	3.8320	3.8321	-0.7013	6.05	0.06	-0.750			
0.1885	12061.32	3.8290	3.8288	-0.7105	6.06	0.07	-0.750			
0.1906	12198.85	3.8260	3.8260	-0.7087	6.06	0.07	-0.750			
0.1928	12337.92	3.8230	3.8230	-0.7121	6.06	0.07	-0.750			
0.1949	12475.52	3.8200	3.8199	-0.7122	6.07	0.08	-0.750			
0.1971	12615.17	3.8170	3.8169	-0.7132	6.07	0.08	-0.750			
0.1992	12747.97	3.8140	3.8140	-0.7080	6.07	0.08	-0.750			
0.2013	12881.82	3.8110	3.8110	-0.7138	6.08	0.09	-0.750			
0.2034	13018.33	3.8080	3.8080	-0.7105	6.08	0.09	-0.750			
0.2056	13160.03	3.8050	3.8049	-0.7160	6.08	0.09	-0.750			
0.2078	13297.67	3.8020	3.8020	-0.7166	6.09	0.10	-0.750			
0.2099	13433.87	3.7990	3.7991	-0.7155	6.09	0.10	-0.750			
0.2120	13570.80	3.7960	3.7959	-0.7173	6.10	0.11	-0.750			
0.2142	13707.45	3.7930	3.7929	-0.7209	6.11	0.12	-0.750			
0.2163	13845.23	3.7900	3.7900	-0.7224	6.11	0.12	-0.750			
0.2185	13986.65	3.7870	3.7870	-0.7290	6.12	0.13	-0.750			
0.2208	14129.98	3.7840	3.7841	-0.7289	6.13	0.14	-0.750			
0.2229	14267.87	3.7810	3.7810	-0.7264	6.13	0.14	-0.750			
0.2251	14405.72	3.7780	3.7779	-0.7254	6.14	0.15	-0.750			
0.2273	14544.71	3.7750	3.7752	-0.7328	6.14	0.15	-0.750			
0.2294	14684.20	3.7720	3.7719	-0.7361	6.14	0.15	-0.750			
0.2317	14828.66	3.7690	3.7690	-0.7431	6.15	0.16	-0.750			
0.2339	14972.51	3.7660	3.7663	-0.7457	6.15	0.16	-0.750			
0.2362	15117.56	3.7630	3.7629	-0.7528	6.16	0.17	-0.750			
0.2384	15260.18	3.7600	3.7601	-0.7548	6.16	0.17	-0.750			
0.2407	15404.40	3.7570	3.7569	-0.7534	6.17	0.18	-0.750			
0.2430	15550.76	3.7540	3.7539	-0.7602	6.18	0.19	-0.750			
0.2453	15696.82	3.7510	3.7511	-0.7587	6.19	0.20	-0.750			
0.2476	15843.37	3.7480	3.7480	-0.7626	6.19	0.20	-0.750			
0.2498	15987.24	3.7450	3.7450	-0.7714	6.20	0.21	-0.750			
0.2521	16134.27	3.7420	3.7419	-0.7730	6.20	0.21	-0.750			
0.2544	16283.31	3.7390	3.7390	-0.7798	6.20	0.21	-0.750			
0.2568	16435.43	3.7360	3.7360	-0.7930	6.21	0.22	-0.750			
0.2592	16591.09	3.7330	3.7332	-0.7933	6.21	0.22	-0.750			
0.2616	16744.86	3.7300	3.7299	-0.7934	6.21	0.22	-0.750			
0.2640	16897.19	3.7270	3.7270	-0.7997	6.22	0.23	-0.750			
0.2664	17050.98	3.7240	3.7240	-0.7966	6.22	0.23	-0.750			
0.2687	17197.03	3.7210	3.7209	-0.8384	6.23	0.24	-0.750			
0.2712	17357.78	3.7180	3.7185	-0.8834	6.23	0.24	-0.750			
0.2739	17528.73	3.7150	3.7146	-0.9193	6.23	0.24	-0.750			
0.2768	17716.73	3.7120	3.7118	-0.9278	6.24	0.25	-0.750			
0.2798	17906.93	3.7090	3.7096	-0.9297	6.24	0.25	-0.750			
0.2827	18095.45	3.7060	3.7060	-0.9308	6.25	0.26	-0.750			
0.2854	18266.71	3.7030	3.7028	-0.9049	6.26	0.27	-0.750			
0.2879	18422.81	3.7000	3.7001	-0.8526	6.26	0.27	-0.750			
0.2904	18587.18	3.6970	3.6969	-0.8604	6.27	0.28	-0.750			
0.2930	18752.59	3.6940	3.6940	-0.8639	6.28	0.29	-0.750			
0.2956	18919.30	3.6910	3.6910	-0.8717	6.29	0.30	-0.750			
0.2982	19087.22	3.6880	3.6880	-0.8804	6.29	0.30	-0.750			
0.3009	19257.36	3.6850	3.6850	-0.8899	6.30	0.31	-0.750			
0.3036	19428.35	3.6820	3.6819	-0.8937	6.30	0.31	-0.750			
0.3063	19600.87	3.6790	3.6790	-0.9038	6.31	0.32	-0.750			
0.3090	19775.04	3.6760	3.6762	-0.9121	6.31	0.32	-0.750			
0.3118	19952.14	3.6730	3.6729	-0.9229	6.31	0.32	-0.750			
0.3145	20130.89	3.6700	3.6700	-0.9286	6.32	0.33	-0.750			
0.3173	20309.81	3.6670	3.6670	-0.9364	6.32	0.33	-0.750			
0.3202	20491.50	3.6640	3.6640	-0.9410	6.33	0.34	-0.750			
0.3230	20672.90	3.6610	3.6609	-0.9477	6.33	0.34	-0.750			
0.3258	20853.09	3.6580	3.6580	-0.9530	6.34	0.35	-0.750			
0.3287	21036.40	3.6550	3.6550	-0.9605	6.34	0.35	-0.750			
0.3316	21220.47	3.6520	3.6520	-0.9694	6.35	0.36	-0.750			
0.3345	21410.13	3.6490	3.6490	-0.9797	6.35	0.36	-0.750			
0.3375	21599.09	3.6460	3.6460	-0.9849	6.35	0.36	-0.750			
0.3405	21789.51	3.6430	3.6430	-0.9911	6.35	0.36	-0.750			
0.3434	21979.07	3.6400	3.6401	-0.9989	6.35	0.36	-0.750			
0.3464	22170.32	3.6370	3.6371	-1.0094	6.35	0.36	-0.750			
0.3495	22365.72	3.6340	3.6339	-1.0199	6.36	0.37	-0.750			
0.3525	22562.21	3.6310	3.6310	-1.0263	6.36	0.37	-0.750			
0.3556	22761.32	3.6280	3.6280	-1.0345	6.36	0.37	-0.750			
0.3588	22962.52	3.6250	3.6253	-1.0466	6.37	0.38	-0.750			
0.3619	23163.65	3.6220	3.6220	-1.0498	6.37	0.38	-0.750			
0.3650	23363.13	3.6190	3.6190	-1.0515	6.37	0.38	-0.750			
0.3682	23566.28	3.6160	3.6160	-1.0596	6.37	0.38	-0.750			
0.3714	23769.28	3.6130	3.6132	-1.0727	6.37	0.38	-0.750			
0.3746	23977.44	3.6100	3.6100	-1.0777	6.38	0.39	-0.750			
0.3779	24185.38	3.6070	3.6070	-1.0867	6.38	0.39	-0.750			
0.3812	24394.34	3.6040	3.6040	-1.0927	6.39	0.40	-0.750			
0.3844	24604.04	3.6010	3.6011	-1.1067	6.39	0.40	-0.750			
0.3878	24817.92	3.5980	3.5980	-1.1156	6.40	0.41	-0.750			
0.3912	25033.64	3.5950	3.5949	-1.1250	6.40	0.41	-0.750			
0.3945	25250.14	3.5920	3.5920	-1.1322	6.41	0.42	-0.750			
0.3980	25470.39	3.5890	3.5890	-1.1431	6.41	0.42	-0.750			
0.4014	25688.81	3.5860	3.5862	-1.1482	6.41	0.42	-0.750	0.435	1.038	
0.4048	25909.40	3.5830	3.5829	-1.1570	6.41	0.42	-0.750			
0.4083	26130.51	3.5800	3.5800	-1.1662	6.41	0.42	-0.750			
0.4118	26357.50	3.5770	3.5769	-1.1799	6.41	0.42	-0.750			
0.4154	26586.00	3.5740	3.5740	-1.1955	6.42	0.43	-0.750			
0.4190	26815.67	3.5710	3.5710	-1.2051	6.43	0.44	-0.750			
0.4226	27048.52	3.5680	3.5680	-1.2157	6.43	0.44	-0.750			
0.4263	27282.43	3.5650	3.5649	-1.2237	6.43	0.44	-0.750			
0.4300	27518.58	3.5620	3.5620	-1.2346	6.43	0.44	-0.750			
0.4337	27755.94	3.5590	3.5591	-1.2442	6.43	0.44	-0.750			
0.4375	27997.24	3.5560	3.5560	-1.2572	6.43	0.44	-0.750			
0.4412	28238.99	3.5530	3.5530	-1.2648	6.43	0.44	-0.750			
0.4450	28482.75	3.5500	3.5499	-1.2778	6.43	0.44	-0.750			
0.4489	28728.88	3.5470	3.5470	-1.2902	6.43	0.44	-0.750			
0.4528	28977.20	3.5440	3.5440	-1.3037	6.44	0.45	-0.750			
0.4567	29227.49	3.5410	3.5410	-1.3165	6.45	0.46	-0.750			
0.4607	29483.42	3.5380	3.5380	-1.3256	6.45	0.46	-0.750			
0.4647	29741.26	3.5350	3.5350	-1.3361	6.45	0.46	-0.750			
0.4687	29998.02	3.5320	3.5320	-1.3452	6.46	0.47	-0.750			
0.4728	30257.05	3.5290	3.5290	-1.3499	6.46	0.47	-0.750			
0.4768	30516.35	3.5260	3.5260	-1.3614	6.46	0.47	-0.750			
0.4809	30776.83	3.5230	3.5230	-1.3676	6.47	0.48	-0.750			
0.4850	31042.69	3.5200	3.5200	-1.3813	6.47	0.48	-0.750			
0.4892	31310.02	3.5170	3.5170	-1.3949	6.48	0.49	-0.750			
0.4934	31578.68	3.5140	3.5140	-1.4054	6.49	0.50	-0.750			
0.4977	31849.98	3.5110	3.5111	-1.4075	6.49	0.50	-0.750			
0.5019	32121.45	3.5080	3.5079	-1.4141	6.50	0.51	-0.750			
0.5061	32392.36	3.5050	3.5050	-1.4160	6.51	0.52	-0.750			
0.5104	32663.47	3.5020	3.5020	-1.4181	6.51	0.52	-0.750			
0.5147	32938.16	3.4990	3.4990	-1.4305	6.52	0.53	-0.750			
0.5189	33211.58	3.4960	3.4960	-1.4371	6.53	0.54	-0.750			
0.5233	33489.44	3.4930	3.4930	-1.4376	6.53	0.54	-0.750			
0.5276	33768.25	3.4900	3.4900	-1.4476	6.54	0.55	-0.750			
0.5320	34045.84	3.4870	3.4871	-1.4536	6.55	0.56	-0.750			
0.5363	34325.87	3.4840	3.4838	-1.4570	6.56	0.57	-0.750			
0.5407	34606.28	3.4810	3.4810	-1.4581	6.57	0.58	-0.750			
0.5451	34887.29	3.4780	3.4780	-1.4619	6.58	0.59	-0.750			
0.5495	35170.02	3.4750	3.4750	-1.4619	6.59	0.60	-0.750			
0.5539	35452.23	3.4720	3.4720	-1.4599	6.60	0.61	-0.750			
0.5583	35730.13	3.4690	3.4690	-1.4583	6.61	0.62	-0.750			
0.5627	36010.55	3.4660	3.4659	-1.4479	6.62	0.63	-0.750			
0.5670	36288.12	3.4630	3.4630	-1.4517	6.64	0.65	-0.750			
0.5714	36566.80	3.4600	3.4602	-1.4473	6.65	0.66	-0.750			
0.5757	36846.06	3.4570	3.4570	-1.4331	6.66	0.67	-0.750			
0.5800	37123.01	3.4540	3.4539	-1.4285	6.68	0.69	-0.750			
0.5843	37395.33	3.4510	3.4511	-1.4118	6.69	0.70	-0.750			
0.5885	37666.02	3.4480	3.4480	-1.4005	6.71	0.72	-0.750			
0.5927	37932.77	3.4450	3.4449	-1.3855	6.72	0.73	-0.750			
0.5968	38195.17	3.4420	3.4420	-1.3686	6.73	0.74	-0.750			
0.6009	38460.73	3.4390	3.4390	-1.3596	6.74	0.75	-0.750			
0.6050	38722.21	3.4360	3.4359	-1.3344	6.76	0.77	-0.750			
0.6090	38975.42	3.4330	3.4332	-1.3181	6.77	0.78	-0.750			
0.6129	39228.32	3.4300	3.4299	-1.2963	6.79	0.80	-0.750			
0.6168	39473.28	3.4270	3.4270	-1.2749	6.81	0.82	-0.750			
0.6205	39713.84	3.4240	3.4242	-1.2522	6.83	0.84	-0.750			
0.6243	39956.72	3.4210	3.4209	-1.2387	6.84	0.85	-0.750			
0.6280	40192.23	3.4180	3.4179	-1.2109	6.85	0.86	-0.750			
0.6316	40423.30	3.4150	3.4150	-1.1880	6.86	0.87	-0.750			
0.6351	40645.97	3.4120	3.4120	-1.1594	6.88	0.89	-0.750			
0.6386	40869.50	3.4090	3.4089	-1.1396	6.89	0.90	-0.750			
0.6419	41084.09	3.4060	3.4060	-1.1132	6.91	0.92	-0.750			
0.6452	41294.35	3.4030	3.4030	-1.0875	6.92	0.93	-0.750			
0.6485	41503.45	3.4000	3.4000	-1.0682	6.94	0.95	-0.750			
0.6517	41706.80	3.3970	3.3970	-1.0401	6.95	0.96	-0.750			
0.6547	41902.79	3.3940	3.3940	-1.0134	6.96	0.97	-0.750			
0.6577	42093.57	3.3910	3.3910	-0.9873	6.97	0.98	-0.750			
0.6607	42282.19	3.3880	3.3880	-0.9633	6.98	0.99	-0.750			
0.6635	42463.99	3.3850	3.3850	-0.9398	7.00	1.01	-0.750			
0.6663	42642.16	3.3820	3.3820	-0.9176	7.02	1.03	-0.750			
0.6690	42815.42	3.3790	3.3790	-0.8979	7.04	1.05	-0.750			
0.6717	42986.41	3.3760	3.3760	-0.8767	7.05	1.06	-0.750			
0.6743	43152.38	3.3730	3.3730	-0.8528	7.07	1.08	-0.750			
0.6768	43314.45	3.3700	3.3700	-0.8340	7.09	1.10	-0.750			
0.6793	43475.07	3.3670	3.3670	-0.8052	7.10	1.11	-0.750			
0.6817	43627.75	3.3640	3.3640	-0.7766	7.12	1.13	-0.750			
0.6839	43772.21	3.3610	3.3611	-0.7524	7.13	1.14	-0.750			
0.6861	43911.49	3.3580	3.3580	-0.7286	7.14	1.15	-0.750			
0.6882	44047.82	3.3550	3.3549	-0.7184	7.15	1.16	-0.750			
0.6903	44182.06	3.3520	3.3520	-0.7056	7.16	1.17	-0.750			
0.6925	44318.00	3.3490	3.3490	-0.6950	7.17	1.18	-0.750			
0.6946	44453.05	3.3460	3.3460	-0.6860	7.18	1.19	-0.750			
0.6966	44584.89	3.3430	3.3431	-0.6715	7.19	1.20	-0.750			
0.6986	44711.39	3.3400	3.3399	-0.6534	7.20	1.21	-0.750			
0.7005	44833.66	3.3370	3.3370	-0.6381	7.22	1.23	-0.750			
0.7024	44954.05	3.3340	3.3340	-0.6267	7.23	1.24	-0.750			
0.7043	45073.20	3.3310	3.3310	-0.6157	7.24	1.25	-0.750			
0.7061	45190.65	3.3280	3.3280	-0.6056	7.25	1.26	-0.750			
0.7079	45306.19	3.3250	3.3250	-0.5936	7.26	1.27	-0.750			
0.7097	45418.48	3.3220	3.3220	-0.5737	7.28	1.29	-0.750			
