Ah_balance (normalized)	Ah_balance (mAh)	Voltage - fit (V)	Voltage -  interpolate (V)	dQ/dV (1/V)	Temperature (°C)	Temperature - diff (°C)	Current (C)	R_DC 0ms (mOhm)	R_DC 50ms (mOhm)	R_DC 50 ms PEC (mOhm)
-0.0690	-4415.36	4.0810	4.0810	0.7939	7.42	1.45	0.750			
-0.0666	-4262.17	4.0780	4.0780	0.7990	7.41	1.44	0.750			
-0.0642	-4109.45	4.0750	4.0750	0.7990	7.41	1.44	0.750			
-0.0618	-3955.04	4.0720	4.0720	0.8008	7.41	1.44	0.750			
-0.0594	-3801.41	4.0690	4.0690	0.8021	7.40	1.43	0.750			
-0.0570	-3647.24	4.0660	4.0660	0.8068	7.40	1.43	0.750			
-0.0546	-3493.07	4.0630	4.0631	0.8080	7.39	1.42	0.750			
-0.0521	-3337.22	4.0600	4.0599	0.8135	7.39	1.42	0.750			
-0.0497	-3180.49	4.0570	4.0570	0.8176	7.39	1.42	0.750			
-0.0472	-3022.86	4.0540	4.0540	0.8154	7.38	1.41	0.750			
-0.0448	-2866.78	4.0510	4.0510	0.8223	7.38	1.41	0.750			
-0.0423	-2709.01	4.0480	4.0481	0.8257	7.37	1.40	0.750			
-0.0398	-2549.98	4.0450	4.0448	0.8272	7.37	1.40	0.750			
-0.0374	-2390.59	4.0420	4.0421	0.8303	7.37	1.40	0.750			
-0.0349	-2230.87	4.0390	4.0391	0.8322	7.36	1.39	0.750			
-0.0323	-2069.80	4.0360	4.0359	0.8369	7.36	1.39	0.750			
-0.0298	-1909.10	4.0330	4.0330	0.8359	7.35	1.38	0.750			
-0.0273	-1748.90	4.0300	4.0300	0.8349	7.35	1.38	0.750			
-0.0248	-1588.28	4.0270	4.0271	0.8387	7.34	1.37	0.750			
-0.0223	-1426.61	4.0240	4.0240	0.8395	7.33	1.36	0.750			
-0.0198	-1266.60	4.0210	4.0210	0.8425	7.33	1.36	0.750			
-0.0173	-1105.41	4.0180	4.0180	0.8475	7.32	1.35	0.750			
-0.0147	-942.06	4.0150	4.0148	0.8510	7.31	1.34	0.750			
-0.0121	-776.86	4.0120	4.0120	0.8540	7.31	1.34	0.750			
-0.0096	-612.32	4.0090	4.0091	0.8571	7.30	1.33	0.750			
-0.0070	-447.40	4.0060	4.0060	0.8595	7.30	1.33	0.750			
-0.0044	-282.47	4.0030	4.0030	0.8594	7.29	1.32	0.750			
-0.0019	-118.59	4.0000	4.0001	0.8613	7.29	1.32	0.750			
0.0007	46.90	3.9970	3.9970	0.8686	7.29	1.32	0.750			
0.0034	215.31	3.9940	3.9940	0.8772	7.28	1.31	0.750			
0.0060	384.66	3.9910	3.9910	0.8807	7.28	1.31	0.750			
0.0087	554.37	3.9880	3.9880	0.8830	7.27	1.30	0.750			
0.0113	724.96	3.9850	3.9850	0.8841	7.27	1.30	0.750			
0.0140	896.19	3.9820	3.9820	0.8820	7.26	1.29	0.750			
0.0166	1063.52	3.9790	3.9790	0.8868	7.25	1.28	0.750			
0.0193	1232.58	3.9760	3.9760	0.8897	7.25	1.28	0.750			
0.0219	1404.24	3.9730	3.9729	0.8957	7.24	1.27	0.750			
0.0247	1578.10	3.9700	3.9700	0.8996	7.23	1.26	0.750			
0.0274	1751.84	3.9670	3.9671	0.9068	7.22	1.25	0.750			
0.0301	1926.75	3.9640	3.9640	0.9119	7.21	1.24	0.750			
0.0329	2102.76	3.9610	3.9610	0.9171	7.20	1.23	0.750			
0.0356	2276.95	3.9580	3.9579	0.9200	7.19	1.22	0.750			
0.0384	2454.65	3.9550	3.9550	0.9258	7.19	1.22	0.750			
0.0412	2634.15	3.9520	3.9520	0.9321	7.18	1.21	0.750			
0.0440	2813.50	3.9490	3.9490	0.9366	7.18	1.21	0.750			
0.0468	2993.75	3.9460	3.9460	0.9402	7.17	1.20	0.750			
0.0496	3176.00	3.9430	3.9430	0.9413	7.17	1.20	0.750			
0.0524	3356.31	3.9400	3.9400	0.9476	7.16	1.19	0.750			
0.0553	3537.92	3.9370	3.9370	0.9554	7.15	1.18	0.750			
0.0581	3721.57	3.9340	3.9340	0.9641	7.15	1.18	0.750			
0.0610	3907.07	3.9310	3.9310	0.9751	7.14	1.17	0.750			
0.0640	4095.42	3.9280	3.9280	0.9776	7.13	1.16	0.750			
0.0669	4284.07	3.9250	3.9250	0.9876	7.12	1.15	0.750			
0.0699	4475.77	3.9220	3.9221	0.9922	7.11	1.14	0.750			
0.0729	4666.65	3.9190	3.9189	0.9913	7.10	1.13	0.750			
0.0759	4856.76	3.9160	3.9160	0.9985	7.09	1.12	0.750			
0.0789	5048.38	3.9130	3.9131	1.0095	7.08	1.11	0.750			
0.0819	5241.54	3.9100	3.9099	1.0195	7.06	1.09	0.750			
0.0850	5437.65	3.9070	3.9070	1.0318	7.05	1.08	0.750			
0.0881	5637.68	3.9040	3.9040	1.0388	7.04	1.07	0.750			
0.0912	5838.48	3.9010	3.9010	1.0575	7.04	1.07	0.750			
0.0944	6043.12	3.8980	3.8981	1.0736	7.03	1.06	0.750			
0.0977	6251.18	3.8950	3.8947	1.0810	7.02	1.05	0.750			
0.1009	6459.24	3.8920	3.8920	1.0940	7.01	1.04	0.750			
0.1042	6671.03	3.8890	3.8891	1.1110	7.00	1.03	0.750			
0.1076	6886.05	3.8860	3.8861	1.1255	7.00	1.03	0.750			
0.1110	7103.10	3.8830	3.8830	1.1331	6.99	1.02	0.750			
0.1144	7321.11	3.8800	3.8800	1.1493	6.97	1.00	0.750			
0.1179	7543.43	3.8770	3.8770	1.1631	6.95	0.98	0.750			
0.1214	7768.94	3.8740	3.8740	1.1798	6.94	0.97	0.750			
0.1249	7996.35	3.8710	3.8710	1.1946	6.92	0.95	0.750			
0.1286	8227.20	3.8680	3.8681	1.2101	6.92	0.95	0.750			
0.1322	8461.62	3.8650	3.8650	1.2292	6.91	0.94	0.750			
0.1359	8699.29	3.8620	3.8620	1.2440	6.90	0.93	0.750			
0.1396	8937.45	3.8590	3.8590	1.2643	6.89	0.92	0.750			
0.1435	9181.59	3.8560	3.8560	1.2886	6.88	0.91	0.750			
0.1474	9430.93	3.8530	3.8528	1.3092	6.87	0.90	0.750			
0.1513	9684.26	3.8500	3.8500	1.3315	6.86	0.89	0.750			
0.1554	9943.36	3.8470	3.8471	1.3510	6.85	0.88	0.750			
0.1594	10203.11	3.8440	3.8440	1.3830	6.83	0.86	0.750			
0.1636	10469.40	3.8410	3.8410	1.4076	6.82	0.85	0.750			
0.1678	10742.36	3.8380	3.8379	1.4428	6.80	0.83	0.750			
0.1722	11021.58	3.8350	3.8350	1.4628	6.78	0.81	0.750	0.459	1.040	
0.1767	11307.51	3.8320	3.8321	1.4863	6.77	0.80	0.750			
0.1812	11597.99	3.8290	3.8291	1.5218	6.75	0.78	0.750			
0.1858	11889.77	3.8260	3.8258	1.5545	6.74	0.77	0.750			
0.1904	12186.19	3.8230	3.8230	1.5725	6.72	0.75	0.750			
0.1952	12492.43	3.8200	3.8201	1.6111	6.70	0.73	0.750			
0.2001	12808.49	3.8170	3.8171	1.6459	6.68	0.71	0.750			
0.2050	13122.17	3.8140	3.8140	1.6859	6.67	0.70	0.750			
0.2102	13452.92	3.8110	3.8109	1.7128	6.65	0.68	0.750			
0.2154	13787.57	3.8080	3.8079	1.7468	6.63	0.66	0.750			
0.2208	14130.07	3.8050	3.8050	1.7907	6.62	0.65	0.750			
0.2262	14479.40	3.8020	3.8018	1.8201	6.60	0.63	0.750			
0.2317	14828.59	3.7990	3.7989	1.8596	6.58	0.61	0.750			
0.2373	15187.72	3.7960	3.7961	1.9093	6.56	0.59	0.750			
0.2431	15559.56	3.7930	3.7929	1.9608	6.54	0.57	0.750			
0.2491	15940.30	3.7900	3.7900	2.0006	6.52	0.55	0.750			
0.2551	16325.35	3.7870	3.7871	2.0175	6.49	0.52	0.750			
0.2612	16719.18	3.7840	3.7839	2.0498	6.47	0.50	0.750			
0.2674	17115.87	3.7810	3.7810	2.0803	6.45	0.48	0.750			
0.2737	17516.72	3.7780	3.7781	2.1016	6.42	0.45	0.750			
0.2800	17919.42	3.7750	3.7750	2.1470	6.38	0.41	0.750			
0.2865	18337.88	3.7720	3.7720	2.1937	6.35	0.38	0.750			
0.2932	18762.79	3.7690	3.7691	2.2322	6.34	0.37	0.750			
0.2999	19196.31	3.7660	3.7661	2.2641	6.32	0.35	0.750			
0.3067	19629.72	3.7630	3.7629	2.3185	6.29	0.32	0.750			
0.3138	20084.38	3.7600	3.7600	2.3485	6.27	0.30	0.750			
0.3209	20535.16	3.7570	3.7572	2.3797	6.24	0.27	0.750			
0.3280	20990.42	3.7540	3.7540	2.3837	6.21	0.24	0.750			
0.3351	21444.04	3.7510	3.7509	2.4325	6.19	0.22	0.750			
0.3426	21924.06	3.7480	3.7479	2.5414	6.17	0.20	0.750			
0.3503	22417.68	3.7450	3.7450	2.6179	6.14	0.17	0.750			
0.3583	22929.25	3.7420	3.7421	2.6969	6.12	0.15	0.750			
0.3665	23454.66	3.7390	3.7391	2.7976	6.09	0.12	0.750			
0.3751	24003.98	3.7360	3.7361	2.9111	6.05	0.08	0.750			
0.3841	24581.67	3.7330	3.7330	2.9987	6.03	0.06	0.750			
0.3932	25164.36	3.7300	3.7300	3.0088	6.01	0.04	0.750			
0.4020	25728.03	3.7270	3.7270	2.9107	5.99	0.02	0.750			
0.4106	26280.88	3.7240	3.7239	2.7952	5.97	-0.00	0.750			
0.4189	26812.49	3.7210	3.7210	2.6016	5.96	-0.01	0.750			
0.4266	27300.28	3.7180	3.7179	2.3829	5.94	-0.03	0.750			
0.4333	27729.77	3.7150	3.7150	2.1072	5.93	-0.04	0.750			
0.4391	28101.47	3.7120	3.7120	1.8595	5.93	-0.04	0.750			
0.4442	28430.75	3.7090	3.7091	1.6501	5.93	-0.04	0.750			
0.4489	28728.13	3.7060	3.7061	1.4652	5.93	-0.04	0.750			
0.4528	28980.96	3.7030	3.7031	1.2932	5.93	-0.04	0.750			
0.4564	29211.79	3.7000	3.6999	1.1584	5.93	-0.04	0.750			
0.4595	29410.90	3.6970	3.6970	1.0512	5.93	-0.04	0.750			
0.4625	29597.32	3.6940	3.6940	0.9595	5.93	-0.04	0.750			
0.4652	29772.55	3.6910	3.6909	0.9009	5.93	-0.04	0.750			
0.4677	29935.92	3.6880	3.6880	0.8460	5.93	-0.04	0.750			
0.4702	30093.59	3.6850	3.6850	0.8022	5.93	-0.04	0.750			
0.4726	30244.93	3.6820	3.6819	0.7601	5.93	-0.04	0.750			
0.4748	30387.89	3.6790	3.6790	0.7146	5.94	-0.03	0.750			
0.4769	30521.16	3.6760	3.6760	0.6634	5.94	-0.03	0.750			
0.4788	30644.56	3.6730	3.6730	0.6123	5.95	-0.02	0.750			
0.4806	30756.76	3.6700	3.6701	0.5570	5.96	-0.01	0.750			
0.4822	30857.84	3.6670	3.6670	0.5103	5.96	-0.01	0.750			
0.4836	30949.83	3.6640	3.6640	0.4616	5.96	-0.01	0.750			
0.4849	31033.04	3.6610	3.6609	0.4183	5.97	-0.00	0.750			
0.4861	31108.75	3.6580	3.6580	0.3783	5.97	0.00	0.750			
0.4871	31177.56	3.6550	3.6551	0.3407	5.98	0.01	0.750			
0.4881	31239.10	3.6520	3.6520	0.3042	5.98	0.01	0.750			
0.4890	31294.10	3.6490	3.6490	0.2679	5.98	0.01	0.750			
0.4897	31341.92	3.6460	3.6460	0.2288	5.98	0.01	0.750			
0.4904	31382.87	3.6430	3.6429	0.1928	5.99	0.02	0.750			
0.4909	31416.50	3.6400	3.6400	0.1547	5.99	0.02	0.750			
0.4913	31442.73	3.6370	3.6372	0.1155	5.99	0.02	0.750			
0.4916	31461.44	3.6340	3.6346	0.0744	5.99	0.02	0.750			
0.4917	31471.79	3.6310	3.6319	0.0251	5.99	0.02	0.750			
