Ah_balance (normalized)	Ah_balance (mAh)	Voltage - fit (V)	Voltage -  interpolate (V)	dQ/dV (1/V)	Temperature (°C)	Temperature - diff (°C)	Current (C)	R_DC 0ms (mOhm)	R_DC 50ms (mOhm)	R_DC 50 ms PEC (mOhm)
0.0917	5867.18	4.0010	4.0004	-0.0315	6.00	0.01	-0.750			
0.0919	5878.81	3.9980	3.9976	-0.0705	6.00	0.01	-0.750			
0.0921	5896.24	3.9950	3.9948	-0.1007	6.00	0.01	-0.750			
0.0925	5918.31	3.9920	3.9917	-0.1292	6.00	0.01	-0.750			
0.0929	5945.86	3.9890	3.9892	-0.1575	6.00	0.01	-0.750			
0.0934	5979.04	3.9860	3.9859	-0.1835	6.00	0.01	-0.750			
0.0940	6018.81	3.9830	3.9830	-0.2093	6.00	0.01	-0.750			
0.0947	6061.17	3.9800	3.9798	-0.2309	6.00	0.01	-0.750			
0.0954	6107.43	3.9770	3.9771	-0.2521	6.00	0.01	-0.750			
0.0962	6158.08	3.9740	3.9740	-0.2744	6.00	0.01	-0.750			
0.0971	6212.41	3.9710	3.9710	-0.2984	5.99	0.00	-0.750			
0.0980	6271.88	3.9680	3.9678	-0.3189	5.99	0.00	-0.750			
0.0990	6334.63	3.9650	3.9651	-0.3443	5.99	0.00	-0.750			
0.1001	6404.45	3.9620	3.9620	-0.3636	5.99	0.00	-0.750			
0.1012	6476.64	3.9590	3.9590	-0.3885	5.99	0.00	-0.750			
0.1024	6553.45	3.9560	3.9556	-0.4100	5.99	0.00	-0.750			
0.1037	6633.98	3.9530	3.9530	-0.4294	5.99	-0.00	-0.750			
0.1050	6718.47	3.9500	3.9499	-0.4486	5.99	-0.00	-0.750			
0.1064	6807.00	3.9470	3.9470	-0.4685	5.99	-0.00	-0.750			
0.1078	6896.64	3.9440	3.9441	-0.4848	5.99	-0.00	-0.750			
0.1092	6991.84	3.9410	3.9411	-0.5259	5.99	-0.00	-0.750			
0.1109	7096.64	3.9380	3.9379	-0.5319	5.98	-0.01	-0.750			
0.1126	7203.23	3.9350	3.9349	-0.5492	5.98	-0.01	-0.750			
0.1142	7311.20	3.9320	3.9318	-0.5563	5.98	-0.01	-0.750			
0.1159	7419.19	3.9290	3.9292	-0.5606	5.98	-0.01	-0.750			
0.1176	7526.34	3.9260	3.9259	-0.5727	5.98	-0.01	-0.750			
0.1193	7634.79	3.9230	3.9228	-0.5827	5.99	-0.00	-0.750			
0.1210	7744.24	3.9200	3.9201	-0.6096	5.99	-0.00	-0.750			
0.1229	7867.19	3.9170	3.9169	-0.6331	5.99	0.00	-0.750			
0.1249	7995.83	3.9140	3.9137	-0.6461	6.00	0.01	-0.750			
0.1269	8123.55	3.9110	3.9108	-0.6452	6.00	0.01	-0.750			
0.1289	8248.95	3.9080	3.9074	-0.6472	6.00	0.01	-0.750			
0.1308	8369.03	3.9050	3.9048	-0.6428	6.01	0.02	-0.750			
0.1326	8487.70	3.9020	3.9017	-0.6354	6.01	0.02	-0.750			
0.1344	8604.14	3.8990	3.8992	-0.6417	6.02	0.03	-0.750			
0.1365	8737.01	3.8960	3.8959	-0.6719	6.02	0.03	-0.750			
0.1385	8866.12	3.8930	3.8931	-0.6774	6.03	0.04	-0.750			
0.1406	8997.63	3.8900	3.8903	-0.6807	6.03	0.04	-0.750			
0.1426	9128.13	3.8870	3.8869	-0.6800	6.04	0.05	-0.750			
0.1447	9257.63	3.8840	3.8840	-0.6872	6.04	0.05	-0.750			
0.1467	9389.06	3.8810	3.8810	-0.6863	6.04	0.05	-0.750			
0.1488	9523.55	3.8780	3.8779	-0.6827	6.05	0.06	-0.750			
0.1508	9652.94	3.8750	3.8750	-0.6811	6.05	0.06	-0.750			
0.1528	9781.69	3.8720	3.8724	-0.6859	6.06	0.07	-0.750			
0.1549	9914.47	3.8690	3.8685	-0.6890	6.06	0.07	-0.750			
0.1569	10044.27	3.8660	3.8660	-0.6923	6.07	0.08	-0.750			
0.1590	10177.97	3.8630	3.8632	-0.6942	6.07	0.08	-0.750			
0.1612	10315.33	3.8600	3.8600	-0.7042	6.08	0.09	-0.750			
0.1633	10451.62	3.8570	3.8567	-0.7058	6.08	0.09	-0.750			
0.1654	10583.20	3.8540	3.8545	-0.6999	6.09	0.10	-0.750			
0.1675	10717.95	3.8510	3.8510	-0.7007	6.10	0.11	-0.750			
0.1696	10851.82	3.8480	3.8480	-0.7115	6.10	0.11	-0.750			
0.1717	10989.56	3.8450	3.8449	-0.7116	6.11	0.12	-0.750			
0.1739	11128.43	3.8420	3.8421	-0.7100	6.12	0.13	-0.750			
0.1760	11265.81	3.8390	3.8388	-0.6954	6.12	0.13	-0.750			
0.1781	11397.29	3.8360	3.8366	-0.7000	6.13	0.14	-0.750			
0.1802	11530.85	3.8330	3.8330	-0.7003	6.14	0.15	-0.750			
0.1822	11660.23	3.8300	3.8298	-0.7044	6.14	0.15	-0.750			
0.1843	11794.47	3.8270	3.8270	-0.7129	6.15	0.16	-0.750			
0.1865	11935.13	3.8240	3.8241	-0.7203	6.16	0.17	-0.750			
0.1887	12075.58	3.8210	3.8208	-0.7233	6.16	0.17	-0.750			
0.1909	12218.96	3.8180	3.8183	-0.7234	6.17	0.18	-0.750			
0.1930	12353.91	3.8150	3.8148	-0.7106	6.18	0.19	-0.750			
0.1951	12487.49	3.8120	3.8121	-0.7212	6.18	0.19	-0.750			
0.1973	12627.08	3.8090	3.8089	-0.7217	6.19	0.20	-0.750			
0.1995	12765.92	3.8060	3.8058	-0.7250	6.20	0.21	-0.750			
0.2017	12907.62	3.8030	3.8031	-0.7211	6.21	0.22	-0.750			
0.2039	13047.22	3.8000	3.8002	-0.7188	6.21	0.22	-0.750			
0.2060	13184.24	3.7970	3.7969	-0.7166	6.22	0.23	-0.750			
0.2081	13317.11	3.7940	3.7939	-0.7179	6.23	0.24	-0.750			
0.2102	13453.85	3.7910	3.7910	-0.7140	6.23	0.24	-0.750			
0.2124	13594.04	3.7880	3.7879	-0.7208	6.24	0.25	-0.750			
0.2146	13733.68	3.7850	3.7850	-0.7276	6.25	0.26	-0.750			
0.2168	13874.55	3.7820	3.7822	-0.7327	6.25	0.26	-0.750			
0.2190	14016.21	3.7790	3.7788	-0.7296	6.26	0.27	-0.750			
0.2212	14156.09	3.7760	3.7759	-0.7392	6.27	0.28	-0.750			
0.2234	14296.11	3.7730	3.7730	-0.7361	6.28	0.29	-0.750			
0.2256	14437.19	3.7700	3.7700	-0.7658	6.28	0.29	-0.750			
0.2279	14584.96	3.7670	3.7678	-0.7737	6.29	0.30	-0.750			
0.2303	14736.21	3.7640	3.7635	-0.7727	6.29	0.30	-0.750			
0.2326	14886.60	3.7610	3.7603	-0.7745	6.30	0.31	-0.750			
0.2350	15037.77	3.7580	3.7580	-0.7594	6.30	0.31	-0.750			
0.2373	15187.39	3.7550	3.7542	-0.7564	6.30	0.31	-0.750			
0.2394	15324.72	3.7520	3.7511	-0.7372	6.31	0.32	-0.750			
0.2416	15461.82	3.7490	3.7488	-0.7370	6.31	0.32	-0.750			
0.2438	15602.30	3.7460	3.7459	-0.7638	6.32	0.33	-0.750			
0.2461	15747.44	3.7430	3.7430	-0.7693	6.33	0.34	-0.750			
0.2484	15898.31	3.7400	3.7400	-0.7755	6.34	0.35	-0.750			
0.2508	16052.14	3.7370	3.7370	-0.7914	6.34	0.35	-0.750			
0.2532	16205.65	3.7340	3.7344	-0.7937	6.35	0.36	-0.750			
0.2556	16357.98	3.7310	3.7307	-0.7975	6.36	0.37	-0.750			
0.2580	16511.86	3.7280	3.7280	-0.8129	6.37	0.38	-0.750			
0.2605	16670.75	3.7250	3.7249	-0.8059	6.37	0.38	-0.750			
0.2630	16829.60	3.7220	3.7217	-0.8082	6.38	0.39	-0.750			
0.2654	16983.32	3.7190	3.7200	-0.8110	6.39	0.40	-0.750			
0.2678	17136.00	3.7160	3.7158	-0.8097	6.39	0.40	-0.750			
0.2702	17290.45	3.7130	3.7128	-0.8245	6.40	0.41	-0.750			
0.2726	17445.28	3.7100	3.7100	-0.8261	6.40	0.41	-0.750			
0.2752	17613.16	3.7070	3.7069	-0.8510	6.41	0.42	-0.750			
0.2778	17778.76	3.7040	3.7044	-0.8432	6.41	0.42	-0.750			
0.2803	17936.99	3.7010	3.7011	-0.8685	6.41	0.42	-0.750			
0.2829	18102.90	3.6980	3.6981	-0.8655	6.42	0.43	-0.750			
0.2855	18271.16	3.6950	3.6946	-0.8611	6.42	0.43	-0.750			
0.2881	18437.87	3.6920	3.6920	-0.8744	6.43	0.44	-0.750			
0.2907	18606.75	3.6890	3.6895	-0.8672	6.43	0.44	-0.750			
0.2933	18773.55	3.6860	3.6862	-0.8879	6.43	0.44	-0.750			
0.2960	18942.57	3.6830	3.6829	-0.8942	6.44	0.45	-0.750			
0.2986	19110.12	3.6800	3.6798	-0.8924	6.44	0.45	-0.750			
0.3014	19287.67	3.6770	3.6767	-0.9127	6.45	0.46	-0.750			
0.3041	19461.56	3.6740	3.6740	-0.9160	6.45	0.46	-0.750			
0.3069	19642.35	3.6710	3.6710	-0.9389	6.46	0.47	-0.750			
0.3098	19827.36	3.6680	3.6678	-0.9382	6.46	0.47	-0.750			
0.3125	20002.16	3.6650	3.6649	-0.9328	6.47	0.48	-0.750			
0.3154	20187.23	3.6620	3.6626	-0.9421	6.47	0.48	-0.750			
0.3182	20366.89	3.6590	3.6588	-0.9592	6.47	0.48	-0.750			
0.3211	20548.57	3.6560	3.6559	-0.9675	6.47	0.48	-0.750			
0.3240	20733.50	3.6530	3.6531	-0.9824	6.48	0.49	-0.750			
0.3270	20927.24	3.6500	3.6499	-0.9949	6.48	0.49	-0.750			
0.3300	21121.93	3.6470	3.6466	-0.9946	6.48	0.49	-0.750			
0.3330	21313.16	3.6440	3.6449	-0.9842	6.49	0.50	-0.750			
0.3360	21501.03	3.6410	3.6404	-0.9777	6.50	0.51	-0.750			
0.3388	21684.22	3.6380	3.6374	-0.9656	6.51	0.52	-0.750			
0.3417	21867.98	3.6350	3.6349	-0.9813	6.51	0.52	-0.750			
0.3446	22057.12	3.6320	3.6320	-0.9952	6.52	0.53	-0.750			
0.3477	22250.56	3.6290	3.6288	-1.0056	6.52	0.53	-0.750			
0.3508	22451.63	3.6260	3.6256	-1.0322	6.53	0.54	-0.750			
0.3538	22645.20	3.6230	3.6230	-1.0356	6.53	0.54	-0.750			
0.3569	22843.01	3.6200	3.6198	-1.0545	6.53	0.54	-0.750			
0.3601	23047.56	3.6170	3.6168	-1.0529	6.54	0.55	-0.750			
0.3632	23246.49	3.6140	3.6138	-1.0452	6.54	0.55	-0.750			
0.3664	23451.44	3.6110	3.6112	-1.0828	6.54	0.55	-0.750			
0.3699	23672.48	3.6080	3.6078	-1.0919	6.54	0.55	-0.750			
0.3732	23881.64	3.6050	3.6047	-1.0859	6.55	0.56	-0.750			
0.3763	24083.43	3.6020	3.6020	-1.0879	6.55	0.56	-0.750			
0.3795	24290.67	3.5990	3.5992	-1.1084	6.55	0.56	-0.750			
0.3829	24506.37	3.5960	3.5957	-1.1319	6.56	0.57	-0.750			
0.3864	24731.12	3.5930	3.5925	-1.1216	6.56	0.57	-0.750			
0.3897	24943.12	3.5900	3.5892	-1.1284	6.57	0.58	-0.750			
0.3933	25170.35	3.5870	3.5863	-1.1447	6.57	0.58	-0.750			
0.3966	25382.59	3.5840	3.5846	-1.1354	6.58	0.59	-0.750			
0.3999	25592.44	3.5810	3.5806	-1.1325	6.59	0.60	-0.750			
0.4033	25808.74	3.5780	3.5782	-1.1737	6.59	0.60	-0.750	0.537	1.108	
0.4068	26037.40	3.5750	3.5748	-1.1920	6.59	0.60	-0.750			
0.4105	26274.91	3.5720	3.5717	-1.2009	6.59	0.60	-0.750			
0.4142	26506.12	3.5690	3.5686	-1.2439	6.59	0.60	-0.750			
0.4179	26746.45	3.5660	3.5656	-1.2667	6.59	0.60	-0.750			
0.4218	26996.36	3.5630	3.5624	-1.2562	6.59	0.60	-0.750			
0.4256	27236.01	3.5600	3.5594	-1.2832	6.59	0.60	-0.750			
0.4295	27485.35	3.5570	3.5572	-1.2934	6.59	0.60	-0.750			
0.4334	27737.50	3.5540	3.5535	-1.3086	6.60	0.61	-0.750			
0.4373	27986.09	3.5510	3.5507	-1.2998	6.61	0.62	-0.750			
0.4411	28228.27	3.5480	3.5485	-1.3451	6.62	0.63	-0.750			
0.4453	28496.71	3.5450	3.5448	-1.3635	6.62	0.63	-0.750			
0.4493	28757.92	3.5420	3.5417	-1.3586	6.63	0.64	-0.750			
0.4534	29014.46	3.5390	3.5386	-1.3536	6.63	0.64	-0.750			
0.4575	29280.06	3.5360	3.5355	-1.3813	6.64	0.65	-0.750			
0.4617	29546.06	3.5330	3.5323	-1.3808	6.64	0.65	-0.750			
0.4658	29808.41	3.5300	3.5303	-1.3789	6.65	0.66	-0.750			
0.4699	30072.51	3.5270	3.5271	-1.3771	6.66	0.67	-0.750			
0.4740	30338.15	3.5240	3.5242	-1.4249	6.66	0.67	-0.750			
0.4783	30610.01	3.5210	3.5210	-1.4140	6.67	0.68	-0.750			
0.4824	30876.59	3.5180	3.5178	-1.4135	6.68	0.69	-0.750			
0.4867	31146.26	3.5150	3.5148	-1.4309	6.68	0.69	-0.750			
0.4911	31430.50	3.5120	3.5125	-1.4388	6.69	0.70	-0.750			
0.4954	31707.11	3.5090	3.5091	-1.4627	6.70	0.71	-0.750			
0.4998	31987.65	3.5060	3.5058	-1.4740	6.70	0.71	-0.750			
0.5043	32273.69	3.5030	3.5031	-1.4854	6.71	0.72	-0.750			
0.5087	32553.74	3.5000	3.4998	-1.4626	6.72	0.73	-0.750			
0.5130	32834.50	3.4970	3.4969	-1.4706	6.73	0.74	-0.750			
0.5173	33108.00	3.4940	3.4940	-1.4672	6.74	0.75	-0.750			
0.5219	33401.14	3.4910	3.4909	-1.4793	6.76	0.77	-0.750			
0.5263	33680.86	3.4880	3.4879	-1.4698	6.77	0.78	-0.750			
0.5307	33967.93	3.4850	3.4848	-1.4703	6.78	0.79	-0.750			
0.5353	34256.49	3.4820	3.4820	-1.4865	6.79	0.80	-0.750			
0.5397	34541.91	3.4790	3.4791	-1.4872	6.81	0.82	-0.750			
0.5441	34820.89	3.4760	3.4758	-1.5018	6.82	0.83	-0.750			
0.5486	35107.95	3.4730	3.4732	-1.5013	6.83	0.84	-0.750			
0.5533	35409.49	3.4700	3.4700	-1.5043	6.84	0.85	-0.750			
0.5578	35698.70	3.4670	3.4673	-1.4895	6.85	0.86	-0.750			
0.5623	35988.57	3.4640	3.4640	-1.4920	6.86	0.87	-0.750			
0.5667	36271.75	3.4610	3.4610	-1.4754	6.87	0.88	-0.750			
0.5711	36550.22	3.4580	3.4578	-1.4520	6.89	0.90	-0.750			
0.5753	36821.44	3.4550	3.4550	-1.4399	6.90	0.91	-0.750			
0.5798	37105.06	3.4520	3.4521	-1.4313	6.92	0.93	-0.750			
0.5841	37383.92	3.4490	3.4489	-1.4245	6.94	0.95	-0.750			
0.5883	37652.25	3.4460	3.4459	-1.4031	6.96	0.97	-0.750			
0.5925	37916.84	3.4430	3.4431	-1.3757	6.98	0.99	-0.750			
0.5966	38182.82	3.4400	3.4399	-1.3679	6.99	1.00	-0.750			
0.6006	38441.52	3.4370	3.4370	-1.3563	7.01	1.02	-0.750			
0.6047	38700.42	3.4340	3.4340	-1.3313	7.03	1.04	-0.750			
0.6087	38958.63	3.4310	3.4310	-1.3223	7.04	1.05	-0.750			
0.6127	39210.38	3.4280	3.4279	-1.3038	7.06	1.07	-0.750			
0.6166	39460.35	3.4250	3.4251	-1.2797	7.07	1.08	-0.750			
0.6204	39705.56	3.4220	3.4219	-1.2562	7.09	1.10	-0.750			
0.6241	39943.40	3.4190	3.4190	-1.2289	7.10	1.11	-0.750			
0.6277	40171.90	3.4160	3.4161	-1.2037	7.11	1.12	-0.750			
0.6314	40406.84	3.4130	3.4129	-1.1840	7.13	1.14	-0.750			
0.6349	40632.06	3.4100	3.4099	-1.1521	7.14	1.15	-0.750			
0.6383	40848.94	3.4070	3.4070	-1.1256	7.16	1.17	-0.750			
0.6416	41063.44	3.4040	3.4041	-1.1093	7.18	1.19	-0.750			
0.6449	41273.12	3.4010	3.4009	-1.0806	7.19	1.20	-0.750			
0.6481	41476.08	3.3980	3.3978	-1.0538	7.21	1.22	-0.750			
0.6512	41675.29	3.3950	3.3951	-1.0271	7.22	1.23	-0.750			
0.6543	41875.77	3.3920	3.3920	-1.0138	7.24	1.25	-0.750			
0.6573	42069.63	3.3890	3.3889	-0.9883	7.25	1.26	-0.750			
0.6602	42255.86	3.3860	3.3860	-0.9567	7.26	1.27	-0.750			
0.6630	42434.76	3.3830	3.3830	-0.9257	7.28	1.29	-0.750			
0.6658	42610.63	3.3800	3.3801	-0.9022	7.29	1.30	-0.750			
0.6684	42779.74	3.3770	3.3770	-0.8762	7.31	1.32	-0.750			
0.6710	42945.86	3.3740	3.3739	-0.8609	7.32	1.33	-0.750			
0.6736	43109.79	3.3710	3.3709	-0.8387	7.34	1.35	-0.750			
0.6761	43270.45	3.3680	3.3679	-0.8198	7.35	1.36	-0.750			
0.6785	43425.31	3.3650	3.3652	-0.7977	7.36	1.37	-0.750			
0.6809	43577.27	3.3620	3.3620	-0.7756	7.38	1.39	-0.750			
0.6832	43722.45	3.3590	3.3589	-0.7567	7.39	1.40	-0.750			
0.6853	43862.17	3.3560	3.3560	-0.7286	7.40	1.41	-0.750			
0.6876	44003.56	3.3530	3.3530	-0.7170	7.41	1.42	-0.750			
0.6897	44140.36	3.3500	3.3499	-0.7009	7.43	1.44	-0.750			
0.6917	44271.98	3.3470	3.3471	-0.6838	7.44	1.45	-0.750			
0.6938	44400.89	3.3440	3.3439	-0.6652	7.45	1.46	-0.750			
0.6957	44527.03	3.3410	3.3410	-0.6512	7.46	1.47	-0.750			
0.6976	44649.54	3.3380	3.3381	-0.6327	7.48	1.49	-0.750			
0.6996	44771.86	3.3350	3.3350	-0.6236	7.49	1.50	-0.750			
0.7014	44890.33	3.3320	3.3319	-0.6070	7.50	1.51	-0.750			
0.7032	45004.20	3.3290	3.3291	-0.5917	7.51	1.52	-0.750			
0.7049	45116.13	3.3260	3.3260	-0.5766	7.52	1.53	-0.750			
0.7067	45226.12	3.3230	3.3230	-0.5643	7.53	1.54	-0.750			
0.7083	45332.91	3.3200	3.3200	-0.5500	7.54	1.55	-0.750			
0.7100	45437.47	3.3170	3.3170	-0.5350	7.55	1.56	-0.750			
0.7115	45538.99	3.3140	3.3140	-0.5263	7.56	1.57	-0.750			
