Ah_balance (normalized)	Ah_balance (mAh)	Voltage - fit (V)	Voltage -  interpolate (V)	dQ/dV (1/V)	Temperature (°C)	Temperature - diff (°C)	Current (C)	R_DC 0ms (mOhm)	R_DC 50ms (mOhm)	R_DC 50 ms PEC (mOhm)
0.0962	6158.56	4.0070	4.0062	-0.0770	5.99	0.00	-0.750			
0.0965	6177.00	4.0040	4.0039	-0.1069	5.99	0.00	-0.750			
0.0969	6203.56	4.0010	4.0004	-0.1284	5.99	-0.00	-0.750			
0.0973	6226.90	3.9980	3.9981	-0.1523	5.99	-0.00	-0.750			
0.0978	6257.60	3.9950	3.9955	-0.1801	5.99	-0.00	-0.750			
0.0984	6294.75	3.9920	3.9923	-0.2060	5.98	-0.01	-0.750			
0.0990	6336.35	3.9890	3.9887	-0.2304	5.98	-0.01	-0.750			
0.0997	6382.67	3.9860	3.9862	-0.2557	5.98	-0.01	-0.750			
0.1005	6434.77	3.9830	3.9832	-0.2805	5.98	-0.01	-0.750			
0.1014	6492.07	3.9800	3.9800	-0.3053	5.97	-0.02	-0.750			
0.1024	6554.67	3.9770	3.9769	-0.3293	5.97	-0.02	-0.750			
0.1034	6618.38	3.9740	3.9740	-0.3461	5.97	-0.02	-0.750			
0.1045	6686.76	3.9710	3.9711	-0.3724	5.96	-0.03	-0.750			
0.1056	6761.09	3.9680	3.9681	-0.3936	5.96	-0.03	-0.750			
0.1069	6838.53	3.9650	3.9649	-0.4154	5.96	-0.03	-0.750			
0.1081	6920.55	3.9620	3.9620	-0.4375	5.95	-0.04	-0.750			
0.1095	7007.12	3.9590	3.9591	-0.4580	5.95	-0.04	-0.750			
0.1109	7097.05	3.9560	3.9559	-0.4768	5.95	-0.04	-0.750			
0.1124	7190.76	3.9530	3.9531	-0.4971	5.94	-0.05	-0.750			
0.1139	7286.99	3.9500	3.9501	-0.5133	5.94	-0.05	-0.750			
0.1154	7387.71	3.9470	3.9469	-0.5370	5.94	-0.05	-0.750			
0.1171	7493.29	3.9440	3.9440	-0.5527	5.94	-0.05	-0.750			
0.1188	7601.66	3.9410	3.9410	-0.5702	5.93	-0.06	-0.750			
0.1205	7713.90	3.9380	3.9380	-0.5871	5.93	-0.06	-0.750			
0.1223	7828.39	3.9350	3.9350	-0.5986	5.93	-0.06	-0.750			
0.1241	7943.62	3.9320	3.9320	-0.6083	5.93	-0.06	-0.750			
0.1260	8061.43	3.9290	3.9289	-0.6207	5.93	-0.06	-0.750			
0.1278	8181.92	3.9260	3.9261	-0.6285	5.93	-0.06	-0.750			
0.1298	8304.72	3.9230	3.9229	-0.6400	5.93	-0.06	-0.750			
0.1317	8428.46	3.9200	3.9201	-0.6488	5.93	-0.06	-0.750			
0.1337	8554.03	3.9170	3.9171	-0.6571	5.93	-0.06	-0.750			
0.1356	8680.68	3.9140	3.9139	-0.6655	5.93	-0.06	-0.750			
0.1376	8809.28	3.9110	3.9110	-0.6713	5.93	-0.06	-0.750			
0.1396	8937.15	3.9080	3.9080	-0.6806	5.93	-0.06	-0.750			
0.1417	9069.85	3.9050	3.9049	-0.6885	5.93	-0.06	-0.750			
0.1438	9203.81	3.9020	3.9020	-0.6922	5.93	-0.06	-0.750			
0.1459	9337.70	3.8990	3.8990	-0.6945	5.93	-0.06	-0.750			
0.1480	9471.95	3.8960	3.8961	-0.6973	5.93	-0.06	-0.750			
0.1501	9605.63	3.8930	3.8929	-0.6995	5.93	-0.06	-0.750			
0.1522	9738.47	3.8900	3.8901	-0.7068	5.93	-0.06	-0.750			
0.1543	9873.60	3.8870	3.8869	-0.7131	5.93	-0.06	-0.750			
0.1565	10014.06	3.8840	3.8839	-0.7176	5.93	-0.06	-0.750			
0.1586	10152.42	3.8810	3.8812	-0.7208	5.93	-0.06	-0.750			
0.1608	10291.35	3.8780	3.8780	-0.7239	5.93	-0.06	-0.750			
0.1630	10429.96	3.8750	3.8749	-0.7244	5.94	-0.05	-0.750			
0.1651	10566.83	3.8720	3.8720	-0.7268	5.94	-0.05	-0.750			
0.1673	10706.94	3.8690	3.8689	-0.7271	5.94	-0.05	-0.750			
0.1695	10849.42	3.8660	3.8660	-0.7322	5.95	-0.04	-0.750			
0.1717	10991.22	3.8630	3.8631	-0.7342	5.95	-0.04	-0.750			
0.1739	11131.60	3.8600	3.8600	-0.7333	5.95	-0.04	-0.750			
0.1761	11271.63	3.8570	3.8570	-0.7391	5.96	-0.03	-0.750			
0.1783	11413.41	3.8540	3.8540	-0.7341	5.96	-0.03	-0.750			
0.1805	11554.65	3.8510	3.8510	-0.7385	5.96	-0.03	-0.750			
0.1828	11697.28	3.8480	3.8480	-0.7382	5.97	-0.02	-0.750			
0.1850	11838.51	3.8450	3.8449	-0.7409	5.97	-0.02	-0.750			
0.1872	11980.74	3.8420	3.8420	-0.7416	5.98	-0.01	-0.750			
0.1894	12122.41	3.8390	3.8389	-0.7421	5.98	-0.01	-0.750			
0.1916	12264.87	3.8360	3.8360	-0.7446	5.98	-0.01	-0.750			
0.1939	12411.01	3.8330	3.8331	-0.7472	5.99	-0.00	-0.750			
0.1962	12553.63	3.8300	3.8300	-0.7438	5.99	-0.00	-0.750			
0.1984	12696.16	3.8270	3.8270	-0.7476	6.00	0.01	-0.750			
0.2006	12838.21	3.8240	3.8240	-0.7428	6.00	0.01	-0.750			
0.2028	12981.59	3.8210	3.8209	-0.7456	6.01	0.02	-0.750			
0.2051	13124.85	3.8180	3.8180	-0.7458	6.02	0.03	-0.750			
0.2073	13269.36	3.8150	3.8150	-0.7455	6.02	0.03	-0.750			
0.2096	13412.58	3.8120	3.8120	-0.7441	6.03	0.04	-0.750			
0.2118	13554.34	3.8090	3.8090	-0.7428	6.03	0.04	-0.750			
0.2140	13696.12	3.8060	3.8060	-0.7464	6.04	0.05	-0.750			
0.2163	13840.50	3.8030	3.8029	-0.7491	6.04	0.05	-0.750			
0.2185	13984.92	3.8000	3.8000	-0.7530	6.05	0.06	-0.750			
0.2208	14129.42	3.7970	3.7970	-0.7558	6.05	0.06	-0.750			
0.2231	14276.23	3.7940	3.7939	-0.7581	6.05	0.06	-0.750			
0.2253	14421.15	3.7910	3.7910	-0.7598	6.06	0.07	-0.750			
0.2276	14565.57	3.7880	3.7880	-0.7586	6.07	0.08	-0.750			
0.2299	14711.31	3.7850	3.7850	-0.7582	6.08	0.09	-0.750			
0.2322	14859.31	3.7820	3.7819	-0.7605	6.08	0.09	-0.750			
0.2344	15004.48	3.7790	3.7791	-0.7582	6.09	0.10	-0.750			
0.2367	15150.08	3.7760	3.7760	-0.7585	6.10	0.11	-0.750			
0.2390	15295.57	3.7730	3.7730	-0.7616	6.10	0.11	-0.750			
0.2413	15441.61	3.7700	3.7700	-0.7600	6.11	0.12	-0.750			
0.2435	15586.71	3.7670	3.7670	-0.7632	6.11	0.12	-0.750			
0.2458	15733.32	3.7640	3.7639	-0.7673	6.12	0.13	-0.750			
0.2482	15881.95	3.7610	3.7610	-0.7684	6.12	0.13	-0.750			
0.2504	16028.53	3.7580	3.7580	-0.7733	6.13	0.14	-0.750			
0.2528	16176.82	3.7550	3.7551	-0.7766	6.13	0.14	-0.750			
0.2551	16327.12	3.7520	3.7519	-0.7784	6.14	0.15	-0.750			
0.2575	16478.14	3.7490	3.7489	-0.7808	6.15	0.16	-0.750			
0.2598	16627.49	3.7460	3.7461	-0.7790	6.15	0.16	-0.750			
0.2621	16774.62	3.7430	3.7432	-0.7890	6.15	0.16	-0.750			
0.2645	16927.77	3.7400	3.7399	-0.7950	6.16	0.17	-0.750			
0.2669	17080.15	3.7370	3.7369	-0.7945	6.16	0.17	-0.750			
0.2693	17234.19	3.7340	3.7340	-0.8045	6.17	0.18	-0.750			
0.2717	17391.13	3.7310	3.7312	-0.8144	6.17	0.18	-0.750			
0.2742	17548.79	3.7280	3.7280	-0.8133	6.18	0.19	-0.750			
0.2766	17704.28	3.7250	3.7249	-0.8175	6.19	0.20	-0.750			
0.2791	17860.59	3.7220	3.7221	-0.8158	6.19	0.20	-0.750			
0.2815	18018.26	3.7190	3.7189	-0.8253	6.20	0.21	-0.750			
0.2840	18176.27	3.7160	3.7163	-0.8302	6.21	0.22	-0.750			
0.2865	18335.06	3.7130	3.7130	-0.8347	6.21	0.22	-0.750			
0.2890	18496.09	3.7100	3.7099	-0.8482	6.22	0.23	-0.750			
0.2916	18661.44	3.7070	3.7070	-0.8564	6.22	0.23	-0.750			
0.2942	18827.83	3.7040	3.7039	-0.8670	6.23	0.24	-0.750			
0.2968	18994.91	3.7010	3.7012	-0.8722	6.23	0.24	-0.750			
0.2994	19162.06	3.6980	3.6980	-0.8761	6.23	0.24	-0.750			
0.3020	19330.06	3.6950	3.6950	-0.8826	6.24	0.25	-0.750			
0.3047	19498.88	3.6920	3.6920	-0.8882	6.24	0.25	-0.750			
0.3073	19670.30	3.6890	3.6890	-0.9011	6.25	0.26	-0.750			
0.3101	19844.57	3.6860	3.6859	-0.9095	6.25	0.26	-0.750			
0.3128	20020.02	3.6830	3.6831	-0.9239	6.26	0.27	-0.750			
0.3156	20199.69	3.6800	3.6799	-0.9336	6.26	0.27	-0.750			
0.3185	20381.79	3.6770	3.6770	-0.9420	6.27	0.28	-0.750			
0.3213	20564.09	3.6740	3.6742	-0.9487	6.27	0.28	-0.750			
0.3242	20745.67	3.6710	3.6710	-0.9584	6.27	0.28	-0.750			
0.3270	20929.35	3.6680	3.6680	-0.9672	6.28	0.29	-0.750			
0.3299	21114.92	3.6650	3.6649	-0.9739	6.28	0.29	-0.750			
0.3329	21303.00	3.6620	3.6620	-0.9839	6.29	0.30	-0.750			
0.3358	21491.68	3.6590	3.6590	-0.9975	6.30	0.31	-0.750			
0.3388	21685.35	3.6560	3.6560	-1.0074	6.31	0.32	-0.750			
0.3419	21878.86	3.6530	3.6528	-1.0177	6.32	0.33	-0.750			
0.3449	22075.43	3.6500	3.6500	-1.0233	6.32	0.33	-0.750			
0.3480	22271.79	3.6470	3.6470	-1.0448	6.33	0.34	-0.750			
0.3512	22475.43	3.6440	3.6440	-1.0553	6.34	0.35	-0.750			
0.3544	22678.94	3.6410	3.6408	-1.0671	6.34	0.35	-0.750			
0.3576	22885.00	3.6380	3.6380	-1.0682	6.35	0.36	-0.750			
0.3608	23092.15	3.6350	3.6350	-1.0819	6.35	0.36	-0.750			
0.3641	23300.95	3.6320	3.6320	-1.0877	6.36	0.37	-0.750			
0.3673	23509.97	3.6290	3.6290	-1.0978	6.36	0.37	-0.750			
0.3706	23717.05	3.6260	3.6260	-1.1012	6.37	0.38	-0.750			
0.3739	23932.77	3.6230	3.6230	-1.1226	6.37	0.38	-0.750			
0.3773	24149.64	3.6200	3.6200	-1.1310	6.37	0.38	-0.750			
0.3808	24369.40	3.6170	3.6170	-1.1434	6.37	0.38	-0.750			
0.3842	24588.46	3.6140	3.6143	-1.1559	6.37	0.38	-0.750			
0.3877	24813.54	3.6110	3.6109	-1.1686	6.38	0.39	-0.750			
0.3912	25038.47	3.6080	3.6079	-1.1757	6.39	0.40	-0.750			
0.3948	25264.18	3.6050	3.6050	-1.1851	6.40	0.41	-0.750			
0.3984	25494.48	3.6020	3.6020	-1.2121	6.41	0.42	-0.750			
0.4020	25729.65	3.5990	3.5989	-1.2191	6.42	0.43	-0.750			
0.4057	25965.54	3.5960	3.5960	-1.2260	6.42	0.43	-0.750			
0.4094	26201.15	3.5930	3.5931	-1.2354	6.43	0.44	-0.750	0.455	1.069	
0.4131	26441.24	3.5900	3.5899	-1.2437	6.44	0.45	-0.750			
0.4169	26681.15	3.5870	3.5869	-1.2463	6.44	0.45	-0.750			
0.4206	26917.90	3.5840	3.5841	-1.2527	6.45	0.46	-0.750			
0.4243	27157.76	3.5810	3.5810	-1.2691	6.45	0.46	-0.750			
0.4282	27401.71	3.5780	3.5779	-1.2847	6.46	0.47	-0.750			
0.4320	27645.88	3.5750	3.5750	-1.3051	6.47	0.48	-0.750			
0.4359	27899.36	3.5720	3.5720	-1.3234	6.47	0.48	-0.750			
0.4400	28160.02	3.5690	3.5690	-1.3487	6.48	0.49	-0.750			
0.4441	28419.85	3.5660	3.5659	-1.3743	6.49	0.50	-0.750			
0.4482	28686.55	3.5630	3.5631	-1.3890	6.49	0.50	-0.750			
0.4524	28956.40	3.5600	3.5599	-1.4045	6.50	0.51	-0.750			
0.4567	29226.47	3.5570	3.5569	-1.4208	6.51	0.52	-0.750			
0.4609	29500.72	3.5540	3.5541	-1.4262	6.51	0.52	-0.750			
0.4653	29779.21	3.5510	3.5509	-1.4382	6.52	0.53	-0.750			
0.4696	30054.86	3.5480	3.5479	-1.4506	6.53	0.54	-0.750			
0.4739	30331.04	3.5450	3.5450	-1.4555	6.53	0.54	-0.750			
0.4783	30611.25	3.5420	3.5420	-1.4837	6.54	0.55	-0.750			
0.4828	30898.43	3.5390	3.5389	-1.5034	6.55	0.56	-0.750			
0.4874	31192.55	3.5360	3.5359	-1.5012	6.55	0.56	-0.750			
0.4919	31483.86	3.5330	3.5329	-1.5256	6.56	0.57	-0.750			
0.4966	31779.48	3.5300	3.5302	-1.5406	6.56	0.57	-0.750			
0.5012	32076.82	3.5270	3.5268	-1.5288	6.57	0.58	-0.750			
0.5058	32370.58	3.5240	3.5239	-1.5492	6.58	0.59	-0.750			
0.5104	32668.77	3.5210	3.5210	-1.5514	6.59	0.60	-0.750			
0.5152	32969.90	3.5180	3.5180	-1.5765	6.61	0.62	-0.750			
0.5199	33274.37	3.5150	3.5152	-1.5852	6.62	0.63	-0.750			
0.5247	33578.42	3.5120	3.5120	-1.5766	6.64	0.65	-0.750			
0.5294	33883.40	3.5090	3.5091	-1.5873	6.64	0.65	-0.750			
0.5342	34190.00	3.5060	3.5061	-1.5849	6.65	0.66	-0.750			
0.5389	34489.01	3.5030	3.5030	-1.5809	6.67	0.68	-0.750			
0.5436	34792.33	3.5000	3.4999	-1.5882	6.68	0.69	-0.750			
0.5484	35096.06	3.4970	3.4970	-1.5688	6.69	0.70	-0.750			
0.5532	35402.20	3.4940	3.4939	-1.5765	6.70	0.71	-0.750			
0.5579	35704.49	3.4910	3.4909	-1.5754	6.71	0.72	-0.750			
0.5625	36002.71	3.4880	3.4879	-1.5669	6.72	0.73	-0.750			
0.5673	36306.49	3.4850	3.4851	-1.5597	6.74	0.75	-0.750			
0.5720	36604.90	3.4820	3.4821	-1.5513	6.75	0.76	-0.750			
0.5766	36901.19	3.4790	3.4789	-1.5536	6.76	0.77	-0.750			
0.5813	37204.72	3.4760	3.4760	-1.5478	6.77	0.78	-0.750			
0.5859	37497.60	3.4730	3.4730	-1.5290	6.78	0.79	-0.750			
0.5905	37793.23	3.4700	3.4700	-1.5190	6.80	0.81	-0.750			
0.5950	38081.91	3.4670	3.4668	-1.5143	6.81	0.82	-0.750			
0.5995	38368.45	3.4640	3.4639	-1.5008	6.82	0.83	-0.750			
0.6041	38660.97	3.4610	3.4610	-1.4950	6.84	0.85	-0.750			
0.6085	38946.56	3.4580	3.4581	-1.4814	6.86	0.87	-0.750			
0.6130	39233.76	3.4550	3.4550	-1.4621	6.87	0.88	-0.750			
0.6174	39513.24	3.4520	3.4520	-1.4433	6.89	0.90	-0.750			
0.6217	39788.68	3.4490	3.4492	-1.4348	6.90	0.91	-0.750			
0.6259	40060.19	3.4460	3.4459	-1.4110	6.92	0.93	-0.750			
0.6302	40331.25	3.4430	3.4429	-1.4006	6.94	0.95	-0.750			
0.6344	40599.56	3.4400	3.4402	-1.3875	6.96	0.97	-0.750			
0.6386	40869.62	3.4370	3.4369	-1.3680	6.98	0.99	-0.750			
0.6427	41129.69	3.4340	3.4340	-1.3345	6.99	1.00	-0.750			
0.6467	41386.06	3.4310	3.4311	-1.2911	7.01	1.02	-0.750			
0.6505	41633.11	3.4280	3.4279	-1.2488	7.03	1.04	-0.750			
0.6541	41865.54	3.4250	3.4250	-1.2075	7.05	1.06	-0.750			
0.6576	42087.11	3.4220	3.4222	-1.1694	7.06	1.07	-0.750			
0.6610	42305.31	3.4190	3.4187	-1.1527	7.08	1.09	-0.750			
0.6644	42523.97	3.4160	3.4158	-1.1398	7.09	1.10	-0.750			
0.6678	42738.89	3.4130	3.4130	-1.1211	7.11	1.12	-0.750			
0.6712	42955.65	3.4100	3.4102	-1.1131	7.12	1.13	-0.750			
0.6746	43175.98	3.4070	3.4070	-1.1083	7.13	1.14	-0.750			
0.6779	43387.52	3.4040	3.4039	-1.0807	7.15	1.16	-0.750			
0.6811	43590.55	3.4010	3.4009	-1.0514	7.16	1.17	-0.750			
0.6842	43790.34	3.3980	3.3982	-1.0231	7.17	1.18	-0.750			
0.6873	43985.17	3.3950	3.3949	-1.0051	7.19	1.20	-0.750			
0.6903	44176.30	3.3920	3.3920	-0.9771	7.20	1.21	-0.750			
0.6931	44359.94	3.3890	3.3889	-0.9510	7.21	1.22	-0.750			
0.6959	44540.78	3.3860	3.3861	-0.9306	7.23	1.24	-0.750			
0.6987	44717.92	3.3830	3.3829	-0.9059	7.24	1.25	-0.750			
0.7014	44889.35	3.3800	3.3799	-0.8802	7.25	1.26	-0.750			
0.7040	45055.41	3.3770	3.3770	-0.8560	7.27	1.28	-0.750			
0.7065	45215.37	3.3740	3.3742	-0.8284	7.28	1.29	-0.750			
0.7090	45375.00	3.3710	3.3710	-0.8100	7.29	1.30	-0.750			
0.7114	45527.38	3.3680	3.3679	-0.7862	7.31	1.32	-0.750			
0.7137	45675.49	3.3650	3.3650	-0.7622	7.32	1.33	-0.750			
0.7159	45818.86	3.3620	3.3620	-0.7434	7.33	1.34	-0.750			
0.7181	45960.78	3.3590	3.3591	-0.7243	7.35	1.36	-0.750			
0.7203	46097.18	3.3560	3.3559	-0.7054	7.36	1.37	-0.750			
0.7223	46230.28	3.3530	3.3529	-0.6885	7.38	1.39	-0.750			
0.7244	46360.61	3.3500	3.3501	-0.6758	7.39	1.40	-0.750			
0.7264	46489.56	3.3470	3.3470	-0.6721	7.40	1.41	-0.750			
