Ah_balance (normalized)	Ah_balance (mAh)	Voltage - fit (V)	Voltage -  interpolate (V)	dQ/dV (1/V)	Temperature (°C)	Temperature - diff (°C)	Current (C)	R_DC 0ms (mOhm)	R_DC 50ms (mOhm)	R_DC 50 ms PEC (mOhm)
0.0942	6028.84	4.0040	4.0034	-0.0948	5.99	0.00	-0.750			
0.0945	6049.69	4.0010	4.0007	-0.1224	5.99	0.00	-0.750			
0.0949	6076.26	3.9980	3.9980	-0.1491	5.99	0.00	-0.750			
0.0954	6107.24	3.9950	3.9950	-0.1757	5.99	-0.00	-0.750			
0.0960	6143.67	3.9920	3.9921	-0.2015	5.99	-0.00	-0.750			
0.0966	6184.87	3.9890	3.9890	-0.2270	5.98	-0.01	-0.750			
0.0974	6231.17	3.9860	3.9860	-0.2527	5.98	-0.01	-0.750			
0.0982	6282.32	3.9830	3.9831	-0.2765	5.98	-0.01	-0.750			
0.0990	6337.38	3.9800	3.9800	-0.3021	5.98	-0.01	-0.750			
0.1000	6398.10	3.9770	3.9771	-0.3272	5.97	-0.02	-0.750			
0.1010	6463.20	3.9740	3.9739	-0.3518	5.97	-0.02	-0.750			
0.1021	6532.99	3.9710	3.9710	-0.3772	5.97	-0.02	-0.750			
0.1033	6608.06	3.9680	3.9681	-0.4014	5.96	-0.03	-0.750			
0.1045	6687.22	3.9650	3.9650	-0.4279	5.96	-0.03	-0.750			
0.1058	6772.21	3.9620	3.9620	-0.4528	5.96	-0.03	-0.750			
0.1072	6861.14	3.9590	3.9590	-0.4751	5.95	-0.04	-0.750			
0.1087	6955.27	3.9560	3.9560	-0.4988	5.95	-0.04	-0.750			
0.1102	7053.49	3.9530	3.9531	-0.5224	5.95	-0.04	-0.750			
0.1118	7155.93	3.9500	3.9500	-0.5449	5.95	-0.04	-0.750			
0.1135	7261.87	3.9470	3.9470	-0.5693	5.95	-0.04	-0.750			
0.1152	7374.75	3.9440	3.9440	-0.5861	5.94	-0.05	-0.750			
0.1170	7490.52	3.9410	3.9410	-0.6036	5.94	-0.05	-0.750			
0.1189	7608.91	3.9380	3.9380	-0.6210	5.94	-0.05	-0.750			
0.1208	7729.68	3.9350	3.9351	-0.6330	5.94	-0.05	-0.750			
0.1227	7851.31	3.9320	3.9319	-0.6452	5.94	-0.05	-0.750			
0.1246	7976.29	3.9290	3.9289	-0.6576	5.94	-0.05	-0.750			
0.1266	8103.11	3.9260	3.9261	-0.6718	5.94	-0.05	-0.750			
0.1287	8235.74	3.9230	3.9230	-0.6859	5.94	-0.05	-0.750			
0.1308	8369.77	3.9200	3.9200	-0.6966	5.94	-0.05	-0.750			
0.1329	8504.43	3.9170	3.9171	-0.7033	5.94	-0.05	-0.750			
0.1350	8640.92	3.9140	3.9139	-0.7091	5.94	-0.05	-0.750			
0.1371	8775.61	3.9110	3.9110	-0.7191	5.94	-0.05	-0.750			
0.1393	8915.01	3.9080	3.9080	-0.7209	5.95	-0.04	-0.750			
0.1415	9054.67	3.9050	3.9049	-0.7299	5.95	-0.04	-0.750			
0.1437	9195.98	3.9020	3.9018	-0.7313	5.95	-0.04	-0.750			
0.1459	9337.06	3.8990	3.8990	-0.7343	5.95	-0.04	-0.750			
0.1481	9477.49	3.8960	3.8960	-0.7384	5.95	-0.04	-0.750			
0.1503	9619.56	3.8930	3.8931	-0.7467	5.96	-0.03	-0.750			
0.1525	9761.11	3.8900	3.8899	-0.7483	5.96	-0.03	-0.750			
0.1548	9909.50	3.8870	3.8868	-0.7582	5.97	-0.02	-0.750			
0.1571	10054.78	3.8840	3.8842	-0.7608	5.97	-0.02	-0.750			
0.1594	10202.32	3.8810	3.8809	-0.7652	5.97	-0.02	-0.750			
0.1617	10351.14	3.8780	3.8780	-0.7640	5.98	-0.01	-0.750			
0.1640	10496.91	3.8750	3.8749	-0.7680	5.98	-0.01	-0.750			
0.1663	10642.50	3.8720	3.8721	-0.7677	5.98	-0.01	-0.750			
0.1686	10792.62	3.8690	3.8689	-0.7702	5.99	-0.00	-0.750			
0.1709	10940.72	3.8660	3.8661	-0.7699	5.99	0.00	-0.750			
0.1732	11087.84	3.8630	3.8631	-0.7724	6.00	0.01	-0.750			
0.1756	11236.20	3.8600	3.8600	-0.7750	6.00	0.01	-0.750			
0.1779	11384.50	3.8570	3.8570	-0.7724	6.00	0.01	-0.750			
0.1802	11534.52	3.8540	3.8540	-0.7783	6.01	0.02	-0.750			
0.1826	11683.71	3.8510	3.8511	-0.7823	6.01	0.02	-0.750			
0.1849	11835.13	3.8480	3.8480	-0.7848	6.02	0.03	-0.750			
0.1873	11987.50	3.8450	3.8450	-0.7850	6.03	0.04	-0.750			
0.1897	12138.13	3.8420	3.8420	-0.7810	6.03	0.04	-0.750			
0.1920	12287.99	3.8390	3.8391	-0.7820	6.04	0.05	-0.750			
0.1943	12438.18	3.8360	3.8361	-0.7794	6.05	0.06	-0.750			
0.1967	12586.62	3.8330	3.8328	-0.7768	6.05	0.06	-0.750			
0.1990	12733.75	3.8300	3.8300	-0.7798	6.06	0.07	-0.750			
0.2013	12882.82	3.8270	3.8271	-0.7828	6.06	0.07	-0.750			
0.2036	13033.13	3.8240	3.8240	-0.7896	6.06	0.07	-0.750			
0.2061	13188.10	3.8210	3.8209	-0.7940	6.07	0.08	-0.750			
0.2085	13341.39	3.8180	3.8180	-0.7929	6.07	0.08	-0.750			
0.2108	13492.82	3.8150	3.8151	-0.8036	6.08	0.09	-0.750			
0.2132	13647.97	3.8120	3.8120	-0.8048	6.08	0.09	-0.750			
0.2157	13802.73	3.8090	3.8089	-0.7979	6.08	0.09	-0.750			
0.2181	13956.60	3.8060	3.8060	-0.8004	6.09	0.10	-0.750			
0.2205	14109.42	3.8030	3.8032	-0.8011	6.09	0.10	-0.750			
0.2229	14264.17	3.8000	3.7998	-0.8011	6.10	0.11	-0.750			
0.2253	14417.76	3.7970	3.7970	-0.8000	6.11	0.12	-0.750			
0.2276	14568.99	3.7940	3.7940	-0.7982	6.11	0.12	-0.750			
0.2301	14724.85	3.7910	3.7910	-0.8029	6.12	0.13	-0.750			
0.2325	14879.47	3.7880	3.7880	-0.8027	6.13	0.14	-0.750			
0.2349	15032.16	3.7850	3.7850	-0.7998	6.14	0.15	-0.750			
0.2373	15185.77	3.7820	3.7820	-0.8016	6.15	0.16	-0.750			
0.2397	15340.27	3.7790	3.7790	-0.8021	6.15	0.16	-0.750			
0.2421	15493.41	3.7760	3.7760	-0.8036	6.16	0.17	-0.750			
0.2445	15647.77	3.7730	3.7730	-0.8051	6.17	0.18	-0.750			
0.2469	15803.43	3.7700	3.7700	-0.8032	6.17	0.18	-0.750			
0.2493	15956.73	3.7670	3.7670	-0.8075	6.18	0.19	-0.750			
0.2518	16112.69	3.7640	3.7641	-0.8076	6.18	0.19	-0.750			
0.2542	16268.00	3.7610	3.7609	-0.8064	6.18	0.19	-0.750			
0.2566	16423.00	3.7580	3.7580	-0.8093	6.19	0.20	-0.750			
0.2590	16577.52	3.7550	3.7551	-0.8113	6.19	0.20	-0.750			
0.2614	16732.58	3.7520	3.7519	-0.8182	6.20	0.21	-0.750			
0.2639	16891.42	3.7490	3.7490	-0.8186	6.21	0.22	-0.750			
0.2664	17047.29	3.7460	3.7460	-0.8178	6.22	0.23	-0.750			
0.2689	17207.26	3.7430	3.7430	-0.8264	6.23	0.24	-0.750			
0.2714	17367.13	3.7400	3.7398	-0.8188	6.23	0.24	-0.750			
0.2738	17520.80	3.7370	3.7370	-0.8239	6.24	0.25	-0.750			
0.2762	17679.70	3.7340	3.7340	-0.8258	6.24	0.25	-0.750			
0.2787	17838.27	3.7310	3.7309	-0.8275	6.24	0.25	-0.750			
0.2812	17999.31	3.7280	3.7280	-0.8338	6.25	0.26	-0.750			
0.2837	18158.96	3.7250	3.7250	-0.8346	6.25	0.26	-0.750			
0.2862	18318.70	3.7220	3.7220	-0.8428	6.26	0.27	-0.750			
0.2888	18481.76	3.7190	3.7190	-0.8505	6.26	0.27	-0.750			
0.2913	18642.48	3.7160	3.7160	-0.8520	6.26	0.27	-0.750			
0.2939	18809.41	3.7130	3.7129	-0.8595	6.27	0.28	-0.750			
0.2965	18976.22	3.7100	3.7100	-0.8622	6.27	0.28	-0.750			
0.2991	19141.03	3.7070	3.7070	-0.8729	6.28	0.29	-0.750			
0.3017	19308.67	3.7040	3.7040	-0.8790	6.29	0.30	-0.750			
0.3043	19477.05	3.7010	3.7009	-0.8793	6.29	0.30	-0.750			
0.3070	19647.74	3.6980	3.6979	-0.8883	6.30	0.31	-0.750			
0.3097	19817.99	3.6950	3.6951	-0.9013	6.31	0.32	-0.750			
0.3124	19993.06	3.6920	3.6919	-0.9073	6.31	0.32	-0.750			
0.3151	20167.59	3.6890	3.6890	-0.9146	6.32	0.33	-0.750			
0.3178	20341.37	3.6860	3.6860	-0.9245	6.32	0.33	-0.750			
0.3207	20521.82	3.6830	3.6831	-0.9369	6.33	0.34	-0.750			
0.3235	20703.91	3.6800	3.6799	-0.9516	6.34	0.35	-0.750			
0.3264	20887.70	3.6770	3.6770	-0.9578	6.34	0.35	-0.750			
0.3292	21071.75	3.6740	3.6739	-0.9675	6.34	0.35	-0.750			
0.3322	21260.51	3.6710	3.6712	-0.9785	6.35	0.36	-0.750			
0.3351	21447.18	3.6680	3.6679	-0.9944	6.35	0.36	-0.750			
0.3381	21638.60	3.6650	3.6650	-1.0023	6.35	0.36	-0.750			
0.3412	21833.76	3.6620	3.6619	-1.0095	6.35	0.36	-0.750			
0.3442	22027.55	3.6590	3.6589	-1.0157	6.35	0.36	-0.750			
0.3473	22225.70	3.6560	3.6560	-1.0344	6.35	0.36	-0.750			
0.3504	22424.39	3.6530	3.6529	-1.0418	6.36	0.37	-0.750			
0.3535	22624.37	3.6500	3.6500	-1.0523	6.36	0.37	-0.750			
0.3566	22824.11	3.6470	3.6471	-1.0606	6.37	0.38	-0.750			
0.3599	23034.05	3.6440	3.6440	-1.0876	6.37	0.38	-0.750			
0.3632	23245.09	3.6410	3.6410	-1.0990	6.37	0.38	-0.750			
0.3665	23456.90	3.6380	3.6379	-1.1083	6.37	0.38	-0.750			
0.3698	23669.29	3.6350	3.6352	-1.1208	6.37	0.38	-0.750			
0.3733	23889.66	3.6320	3.6319	-1.1409	6.38	0.39	-0.750			
0.3767	24109.21	3.6290	3.6290	-1.1532	6.38	0.39	-0.750			
0.3802	24332.15	3.6260	3.6259	-1.1616	6.39	0.40	-0.750			
0.3837	24557.23	3.6230	3.6231	-1.1795	6.39	0.40	-0.750			
0.3873	24784.40	3.6200	3.6199	-1.1907	6.40	0.41	-0.750			
0.3908	25012.89	3.6170	3.6170	-1.2027	6.40	0.41	-0.750			
0.3944	25241.45	3.6140	3.6140	-1.2143	6.41	0.42	-0.750			
0.3981	25479.96	3.6110	3.6110	-1.2364	6.41	0.42	-0.750			
0.4018	25718.36	3.6080	3.6079	-1.2545	6.42	0.43	-0.750			
0.4057	25963.46	3.6050	3.6049	-1.2671	6.43	0.44	-0.750			
0.4095	26207.43	3.6020	3.6020	-1.2772	6.43	0.44	-0.750			
0.4134	26455.37	3.5990	3.5989	-1.2930	6.43	0.44	-0.750	0.485	1.105	
0.4173	26705.11	3.5960	3.5959	-1.3017	6.43	0.44	-0.750			
0.4212	26953.98	3.5930	3.5930	-1.3199	6.43	0.44	-0.750			
0.4252	27209.72	3.5900	3.5900	-1.3325	6.43	0.44	-0.750			
0.4292	27469.53	3.5870	3.5869	-1.3464	6.43	0.44	-0.750			
0.4333	27728.41	3.5840	3.5842	-1.3599	6.43	0.44	-0.750			
0.4373	27988.63	3.5810	3.5809	-1.3760	6.43	0.44	-0.750			
0.4415	28254.10	3.5780	3.5780	-1.3894	6.43	0.44	-0.750			
0.4457	28524.21	3.5750	3.5750	-1.4119	6.43	0.44	-0.750			
0.4499	28795.78	3.5720	3.5720	-1.4438	6.43	0.44	-0.750			
0.4543	29076.15	3.5690	3.5689	-1.4668	6.43	0.44	-0.750			
0.4588	29362.55	3.5660	3.5661	-1.4800	6.43	0.44	-0.750			
0.4632	29646.28	3.5630	3.5628	-1.5020	6.44	0.45	-0.750			
0.4678	29938.52	3.5600	3.5600	-1.5042	6.45	0.46	-0.750			
0.4723	30226.25	3.5570	3.5570	-1.5124	6.45	0.46	-0.750			
0.4769	30520.27	3.5540	3.5540	-1.5307	6.45	0.46	-0.750			
0.4815	30813.08	3.5510	3.5509	-1.5304	6.45	0.46	-0.750			
0.4861	31107.80	3.5480	3.5479	-1.5450	6.46	0.47	-0.750			
0.4907	31404.47	3.5450	3.5448	-1.5820	6.46	0.47	-0.750			
0.4954	31705.77	3.5420	3.5421	-1.5818	6.47	0.48	-0.750			
0.5002	32015.93	3.5390	3.5388	-1.5955	6.47	0.48	-0.750			
0.5051	32326.11	3.5360	3.5360	-1.6014	6.47	0.48	-0.750			
0.5099	32633.10	3.5330	3.5328	-1.6139	6.47	0.48	-0.750			
0.5148	32948.11	3.5300	3.5300	-1.6383	6.48	0.49	-0.750			
0.5196	33254.67	3.5270	3.5270	-1.6399	6.48	0.49	-0.750			
0.5246	33577.40	3.5240	3.5240	-1.6672	6.48	0.49	-0.750			
0.5297	33900.93	3.5210	3.5209	-1.6576	6.49	0.50	-0.750			
0.5348	34225.28	3.5180	3.5178	-1.6693	6.49	0.50	-0.750			
0.5397	34541.14	3.5150	3.5150	-1.6864	6.49	0.50	-0.750			
0.5447	34861.32	3.5120	3.5123	-1.6927	6.49	0.50	-0.750			
0.5498	35189.34	3.5090	3.5090	-1.7018	6.51	0.52	-0.750			
0.5549	35514.51	3.5060	3.5060	-1.7124	6.52	0.53	-0.750			
0.5601	35848.55	3.5030	3.5028	-1.7235	6.53	0.54	-0.750			
0.5655	36189.28	3.5000	3.4999	-1.7476	6.54	0.55	-0.750			
0.5706	36521.52	3.4970	3.4971	-1.7204	6.55	0.56	-0.750			
0.5757	36847.64	3.4940	3.4939	-1.6977	6.56	0.57	-0.750			
0.5808	37173.68	3.4910	3.4910	-1.6704	6.57	0.58	-0.750			
0.5859	37495.57	3.4880	3.4879	-1.6639	6.58	0.59	-0.750			
0.5908	37809.06	3.4850	3.4848	-1.6570	6.59	0.60	-0.750			
0.5957	38127.36	3.4820	3.4820	-1.6334	6.60	0.61	-0.750			
0.6007	38446.08	3.4790	3.4792	-1.6235	6.61	0.62	-0.750			
0.6055	38752.12	3.4760	3.4762	-1.6099	6.63	0.64	-0.750			
0.6103	39057.35	3.4730	3.4730	-1.5961	6.64	0.65	-0.750			
0.6151	39366.80	3.4700	3.4698	-1.5861	6.65	0.66	-0.750			
0.6198	39668.09	3.4670	3.4673	-1.5701	6.67	0.68	-0.750			
0.6245	39967.10	3.4640	3.4639	-1.5576	6.68	0.69	-0.750			
0.6291	40265.50	3.4610	3.4613	-1.5478	6.69	0.70	-0.750			
0.6338	40561.51	3.4580	3.4580	-1.5226	6.71	0.72	-0.750			
0.6383	40852.60	3.4550	3.4548	-1.4982	6.72	0.73	-0.750			
0.6428	41136.67	3.4520	3.4520	-1.4775	6.74	0.75	-0.750			
0.6472	41419.81	3.4490	3.4488	-1.4481	6.76	0.77	-0.750			
0.6515	41697.30	3.4460	3.4460	-1.4172	6.77	0.78	-0.750			
0.6556	41958.25	3.4430	3.4430	-1.3893	6.78	0.79	-0.750			
0.6598	42224.81	3.4400	3.4399	-1.3660	6.80	0.81	-0.750			
0.6639	42489.83	3.4370	3.4369	-1.3458	6.82	0.83	-0.750			
0.6679	42743.50	3.4340	3.4339	-1.3217	6.83	0.84	-0.750			
0.6718	42994.00	3.4310	3.4310	-1.2911	6.85	0.86	-0.750			
0.6757	43243.67	3.4280	3.4279	-1.2628	6.86	0.87	-0.750			
0.6794	43482.74	3.4250	3.4249	-1.2277	6.88	0.89	-0.750			
0.6830	43709.31	3.4220	3.4224	-1.1898	6.89	0.90	-0.750			
0.6866	43940.54	3.4190	3.4190	-1.1665	6.91	0.92	-0.750			
0.6900	44160.97	3.4160	3.4159	-1.1376	6.93	0.94	-0.750			
0.6934	44374.82	3.4130	3.4129	-1.1082	6.94	0.95	-0.750			
0.6966	44584.18	3.4100	3.4101	-1.0900	6.96	0.97	-0.750			
0.6999	44791.76	3.4070	3.4069	-1.0616	6.97	0.98	-0.750			
0.7030	44993.28	3.4040	3.4040	-1.0340	6.98	0.99	-0.750			
0.7061	45188.83	3.4010	3.4009	-1.0024	6.99	1.00	-0.750			
0.7091	45379.22	3.3980	3.3979	-0.9859	7.01	1.02	-0.750			
0.7120	45566.74	3.3950	3.3950	-0.9531	7.03	1.04	-0.750			
0.7148	45747.14	3.3920	3.3920	-0.9248	7.04	1.05	-0.750			
0.7175	45920.29	3.3890	3.3889	-0.8973	7.06	1.07	-0.750			
0.7202	46093.30	3.3860	3.3862	-0.8678	7.07	1.08	-0.750			
0.7228	46257.17	3.3830	3.3829	-0.8354	7.09	1.10	-0.750			
0.7252	46413.43	3.3800	3.3800	-0.8139	7.10	1.11	-0.750			
0.7276	46565.11	3.3770	3.3771	-0.7909	7.11	1.12	-0.750			
0.7299	46715.93	3.3740	3.3737	-0.7708	7.13	1.14	-0.750			
0.7322	46863.97	3.3710	3.3712	-0.7816	7.14	1.15	-0.750			
