Ah_balance (normalized)	Ah_balance (mAh)	Voltage - fit (V)	Voltage -  interpolate (V)	dQ/dV (1/V)	Temperature (°C)	Temperature - diff (°C)	Current (C)	R_DC 0ms (mOhm)	R_DC 50ms (mOhm)	R_DC 50 ms PEC (mOhm)
0.0900	5762.25	4.0020	4.0016	-0.0766	5.92	0.03	-0.750			
0.0903	5779.71	3.9990	3.9988	-0.1052	5.92	0.03	-0.750			
0.0907	5803.22	3.9960	3.9960	-0.1335	5.92	0.03	-0.750			
0.0911	5831.45	3.9930	3.9929	-0.1597	5.92	0.03	-0.750			
0.0916	5864.84	3.9900	3.9900	-0.1849	5.92	0.03	-0.750			
0.0922	5902.85	3.9870	3.9872	-0.2104	5.91	0.02	-0.750			
0.0929	5946.50	3.9840	3.9839	-0.2343	5.91	0.02	-0.750			
0.0937	5994.09	3.9810	3.9810	-0.2575	5.91	0.02	-0.750			
0.0945	6045.47	3.9780	3.9780	-0.2806	5.91	0.02	-0.750			
0.0953	6101.18	3.9750	3.9751	-0.3057	5.90	0.01	-0.750			
0.0963	6161.98	3.9720	3.9720	-0.3305	5.90	0.01	-0.750			
0.0973	6227.62	3.9690	3.9689	-0.3542	5.90	0.01	-0.750			
0.0984	6297.83	3.9660	3.9660	-0.3797	5.90	0.01	-0.750			
0.0996	6373.08	3.9630	3.9630	-0.4090	5.89	0.00	-0.750			
0.1009	6454.70	3.9600	3.9600	-0.4345	5.89	-0.00	-0.750			
0.1022	6540.75	3.9570	3.9570	-0.4599	5.88	-0.01	-0.750			
0.1036	6631.07	3.9540	3.9540	-0.4873	5.88	-0.01	-0.750			
0.1051	6727.90	3.9510	3.9511	-0.5111	5.87	-0.02	-0.750			
0.1067	6829.39	3.9480	3.9479	-0.5369	5.87	-0.02	-0.750			
0.1083	6934.24	3.9450	3.9450	-0.5591	5.86	-0.03	-0.750			
0.1100	7042.80	3.9420	3.9422	-0.5828	5.86	-0.03	-0.750			
0.1118	7158.40	3.9390	3.9389	-0.6066	5.85	-0.04	-0.750			
0.1137	7277.36	3.9360	3.9360	-0.6282	5.85	-0.04	-0.750			
0.1156	7401.25	3.9330	3.9330	-0.6417	5.85	-0.04	-0.750			
0.1176	7525.86	3.9300	3.9301	-0.6605	5.85	-0.04	-0.750			
0.1196	7655.52	3.9270	3.9270	-0.6733	5.85	-0.04	-0.750			
0.1217	7786.17	3.9240	3.9240	-0.6833	5.85	-0.04	-0.750			
0.1237	7918.48	3.9210	3.9209	-0.6913	5.85	-0.04	-0.750			
0.1258	8052.58	3.9180	3.9181	-0.7006	5.85	-0.04	-0.750			
0.1279	8187.28	3.9150	3.9151	-0.7128	5.85	-0.04	-0.750			
0.1301	8325.37	3.9120	3.9120	-0.7282	5.85	-0.04	-0.750			
0.1323	8465.23	3.9090	3.9089	-0.7356	5.85	-0.04	-0.750			
0.1345	8609.97	3.9060	3.9059	-0.7453	5.85	-0.04	-0.750			
0.1368	8754.70	3.9030	3.9031	-0.7557	5.85	-0.04	-0.750			
0.1391	8900.74	3.9000	3.9000	-0.7618	5.85	-0.04	-0.750			
0.1414	9047.82	3.8970	3.8969	-0.7666	5.86	-0.03	-0.750			
0.1437	9194.48	3.8940	3.8940	-0.7690	5.86	-0.03	-0.750			
0.1460	9341.78	3.8910	3.8910	-0.7693	5.86	-0.03	-0.750			
0.1483	9491.94	3.8880	3.8880	-0.7780	5.87	-0.02	-0.750			
0.1507	9642.18	3.8850	3.8850	-0.7791	5.87	-0.02	-0.750			
0.1530	9791.25	3.8820	3.8820	-0.7786	5.87	-0.02	-0.750			
0.1553	9941.07	3.8790	3.8790	-0.7855	5.87	-0.02	-0.750			
0.1577	10091.41	3.8760	3.8761	-0.7899	5.88	-0.01	-0.750			
0.1601	10243.72	3.8730	3.8729	-0.7965	5.88	-0.01	-0.750			
0.1625	10397.97	3.8700	3.8702	-0.7987	5.88	-0.01	-0.750			
0.1649	10551.99	3.8670	3.8670	-0.8000	5.88	-0.01	-0.750			
0.1673	10706.70	3.8640	3.8640	-0.8037	5.88	-0.01	-0.750			
0.1697	10861.11	3.8610	3.8610	-0.8047	5.89	-0.00	-0.750			
0.1721	11016.34	3.8580	3.8579	-0.8079	5.89	-0.00	-0.750			
0.1745	11170.55	3.8550	3.8551	-0.8070	5.89	-0.00	-0.750			
0.1770	11325.24	3.8520	3.8519	-0.8100	5.89	0.00	-0.750			
0.1794	11481.31	3.8490	3.8491	-0.8166	5.90	0.01	-0.750			
0.1818	11638.30	3.8460	3.8459	-0.8185	5.90	0.01	-0.750			
0.1843	11795.80	3.8430	3.8430	-0.8202	5.90	0.01	-0.750			
0.1868	11955.02	3.8400	3.8400	-0.8219	5.91	0.02	-0.750			
0.1893	12112.42	3.8370	3.8370	-0.8267	5.91	0.02	-0.750			
0.1917	12271.78	3.8340	3.8340	-0.8291	5.92	0.03	-0.750			
0.1942	12431.55	3.8310	3.8309	-0.8280	5.92	0.03	-0.750			
0.1967	12590.21	3.8280	3.8280	-0.8262	5.92	0.03	-0.750			
0.1992	12750.17	3.8250	3.8251	-0.8288	5.93	0.04	-0.750			
0.2017	12908.97	3.8220	3.8220	-0.8284	5.93	0.04	-0.750			
0.2042	13067.49	3.8190	3.8189	-0.8313	5.94	0.05	-0.750			
0.2067	13226.46	3.8160	3.8160	-0.8294	5.94	0.05	-0.750			
0.2092	13385.81	3.8130	3.8130	-0.8332	5.94	0.05	-0.750			
0.2117	13548.15	3.8100	3.8099	-0.8365	5.95	0.06	-0.750			
0.2142	13708.33	3.8070	3.8070	-0.8349	5.96	0.07	-0.750			
0.2167	13867.38	3.8040	3.8040	-0.8375	5.96	0.07	-0.750			
0.2192	14027.68	3.8010	3.8011	-0.8409	5.97	0.08	-0.750			
0.2217	14189.58	3.7980	3.7979	-0.8407	5.98	0.09	-0.750			
0.2243	14353.01	3.7950	3.7949	-0.8455	5.99	0.10	-0.750			
0.2268	14514.83	3.7920	3.7920	-0.8447	5.99	0.10	-0.750			
0.2293	14677.50	3.7890	3.7890	-0.8529	6.00	0.11	-0.750			
0.2319	14841.03	3.7860	3.7860	-0.8536	6.00	0.11	-0.750			
0.2345	15006.53	3.7830	3.7829	-0.8421	6.01	0.12	-0.750			
0.2370	15169.23	3.7800	3.7800	-0.8415	6.01	0.12	-0.750			
0.2395	15330.31	3.7770	3.7771	-0.8385	6.01	0.12	-0.750			
0.2420	15489.31	3.7740	3.7740	-0.8392	6.02	0.13	-0.750			
0.2445	15648.85	3.7710	3.7708	-0.8390	6.02	0.13	-0.750			
0.2470	15807.82	3.7680	3.7679	-0.8390	6.03	0.14	-0.750			
0.2495	15970.71	3.7650	3.7651	-0.8501	6.03	0.14	-0.750			
0.2521	16136.37	3.7620	3.7620	-0.8576	6.04	0.15	-0.750			
0.2547	16301.90	3.7590	3.7589	-0.8612	6.04	0.15	-0.750			
0.2573	16468.59	3.7560	3.7560	-0.8612	6.05	0.16	-0.750			
0.2599	16632.91	3.7530	3.7530	-0.8585	6.05	0.16	-0.750			
0.2625	16799.80	3.7500	3.7502	-0.8604	6.06	0.17	-0.750			
0.2651	16964.40	3.7470	3.7469	-0.8594	6.07	0.18	-0.750			
0.2676	17128.12	3.7440	3.7440	-0.8615	6.07	0.18	-0.750			
0.2702	17295.50	3.7410	3.7409	-0.8554	6.08	0.19	-0.750			
0.2728	17460.38	3.7380	3.7380	-0.8596	6.08	0.19	-0.750			
0.2754	17624.38	3.7350	3.7352	-0.8590	6.09	0.20	-0.750			
0.2780	17789.30	3.7320	3.7319	-0.8558	6.09	0.20	-0.750			
0.2805	17952.99	3.7290	3.7289	-0.8641	6.10	0.21	-0.750			
0.2831	18117.03	3.7260	3.7260	-0.8644	6.10	0.21	-0.750			
0.2857	18286.43	3.7230	3.7229	-0.8740	6.11	0.22	-0.750			
0.2884	18455.04	3.7200	3.7201	-0.8764	6.11	0.22	-0.750			
0.2910	18622.89	3.7170	3.7170	-0.8738	6.12	0.23	-0.750			
0.2936	18790.76	3.7140	3.7140	-0.8757	6.12	0.23	-0.750			
0.2962	18956.81	3.7110	3.7110	-0.8707	6.13	0.24	-0.750			
0.2988	19126.19	3.7080	3.7080	-0.8793	6.14	0.25	-0.750			
0.3015	19294.48	3.7050	3.7050	-0.8829	6.14	0.25	-0.750			
0.3041	19464.86	3.7020	3.7020	-0.8915	6.14	0.25	-0.750			
0.3068	19634.76	3.6990	3.6989	-0.9000	6.15	0.26	-0.750			
0.3095	19807.91	3.6960	3.6960	-0.9120	6.15	0.26	-0.750			
0.3123	19985.84	3.6930	3.6933	-0.9217	6.15	0.26	-0.750			
0.3151	20164.19	3.6900	3.6897	-0.9340	6.16	0.27	-0.750			
0.3179	20345.09	3.6870	3.6872	-0.9377	6.16	0.27	-0.750			
0.3207	20526.05	3.6840	3.6841	-0.9389	6.17	0.28	-0.750			
0.3236	20709.01	3.6810	3.6809	-0.9508	6.18	0.29	-0.750			
0.3264	20888.86	3.6780	3.6779	-0.9509	6.18	0.29	-0.750			
0.3292	21068.45	3.6750	3.6750	-0.9589	6.19	0.30	-0.750			
0.3321	21255.33	3.6720	3.6720	-0.9677	6.19	0.30	-0.750			
0.3350	21441.60	3.6690	3.6689	-0.9780	6.20	0.31	-0.750			
0.3380	21631.58	3.6660	3.6661	-0.9936	6.20	0.31	-0.750			
0.3410	21824.32	3.6630	3.6629	-1.0059	6.20	0.31	-0.750			
0.3440	22017.36	3.6600	3.6599	-1.0142	6.21	0.32	-0.750			
0.3471	22212.09	3.6570	3.6571	-1.0225	6.21	0.32	-0.750			
0.3502	22410.37	3.6540	3.6542	-1.0424	6.21	0.32	-0.750			
0.3533	22611.99	3.6510	3.6509	-1.0533	6.22	0.33	-0.750			
0.3565	22813.09	3.6480	3.6480	-1.0635	6.22	0.33	-0.750			
0.3596	23017.44	3.6450	3.6450	-1.0826	6.23	0.34	-0.750			
0.3630	23228.89	3.6420	3.6421	-1.1021	6.23	0.34	-0.750			
0.3663	23442.10	3.6390	3.6389	-1.1135	6.24	0.35	-0.750			
0.3696	23657.04	3.6360	3.6361	-1.1316	6.24	0.35	-0.750			
0.3730	23874.11	3.6330	3.6331	-1.1518	6.25	0.36	-0.750			
0.3765	24098.20	3.6300	3.6300	-1.1705	6.25	0.36	-0.750			
0.3801	24324.12	3.6270	3.6269	-1.1883	6.25	0.36	-0.750			
0.3836	24551.81	3.6240	3.6240	-1.2070	6.25	0.36	-0.750			
0.3873	24787.94	3.6210	3.6211	-1.2307	6.25	0.36	-0.750			
0.3910	25026.38	3.6180	3.6179	-1.2478	6.26	0.37	-0.750			
0.3948	25267.38	3.6150	3.6150	-1.2598	6.26	0.37	-0.750			
0.3986	25511.47	3.6120	3.6120	-1.2735	6.27	0.38	-0.750			
0.4024	25754.77	3.6090	3.6091	-1.3111	6.27	0.38	-0.750			
0.4064	26010.09	3.6060	3.6059	-1.3283	6.27	0.38	-0.750			
0.4104	26266.67	3.6030	3.6029	-1.3507	6.27	0.38	-0.750			
0.4145	26530.78	3.6000	3.6002	-1.3677	6.27	0.38	-0.750	0.496	1.159	
0.4187	26797.55	3.5970	3.5970	-1.3871	6.28	0.39	-0.750			
0.4229	27065.21	3.5940	3.5939	-1.4026	6.29	0.40	-0.750			
0.4271	27332.53	3.5910	3.5910	-1.4102	6.29	0.40	-0.750			
0.4313	27602.47	3.5880	3.5880	-1.4250	6.30	0.41	-0.750			
0.4356	27879.77	3.5850	3.5851	-1.4522	6.30	0.41	-0.750			
0.4400	28159.40	3.5820	3.5819	-1.4707	6.30	0.41	-0.750			
0.4444	28443.59	3.5790	3.5790	-1.4973	6.31	0.42	-0.750			
0.4490	28733.08	3.5760	3.5760	-1.5153	6.31	0.42	-0.750			
0.4536	29027.79	3.5730	3.5730	-1.5404	6.32	0.43	-0.750			
0.4582	29326.27	3.5700	3.5699	-1.5625	6.32	0.43	-0.750			
0.4629	29627.20	3.5670	3.5671	-1.5827	6.33	0.44	-0.750			
0.4677	29933.16	3.5640	3.5641	-1.5989	6.33	0.44	-0.750			
0.4725	30241.85	3.5610	3.5609	-1.6252	6.34	0.45	-0.750			
0.4774	30556.32	3.5580	3.5580	-1.6403	6.34	0.45	-0.750			
0.4824	30872.71	3.5550	3.5550	-1.6599	6.35	0.46	-0.750			
0.4874	31195.63	3.5520	3.5519	-1.6791	6.35	0.46	-0.750			
0.4925	31517.25	3.5490	3.5490	-1.6937	6.36	0.47	-0.750			
0.4976	31844.63	3.5460	3.5460	-1.7057	6.37	0.48	-0.750			
0.5027	32175.27	3.5430	3.5430	-1.7166	6.37	0.48	-0.750			
0.5079	32502.77	3.5400	3.5400	-1.7319	6.38	0.49	-0.750			
0.5131	32838.57	3.5370	3.5370	-1.7523	6.38	0.49	-0.750			
0.5183	33174.10	3.5340	3.5341	-1.7668	6.38	0.49	-0.750			
0.5237	33516.35	3.5310	3.5310	-1.7860	6.39	0.50	-0.750			
0.5291	33859.41	3.5280	3.5280	-1.8030	6.39	0.50	-0.750			
0.5346	34211.88	3.5250	3.5249	-1.8088	6.40	0.51	-0.750			
0.5401	34565.28	3.5220	3.5220	-1.8092	6.41	0.52	-0.750			
0.5455	34910.69	3.5190	3.5190	-1.7939	6.42	0.53	-0.750			
0.5509	35255.25	3.5160	3.5160	-1.7698	6.43	0.54	-0.750			
0.5561	35587.78	3.5130	3.5132	-1.7643	6.43	0.54	-0.750			
0.5613	35922.57	3.5100	3.5100	-1.7655	6.43	0.54	-0.750			
0.5665	36258.57	3.5070	3.5070	-1.7790	6.44	0.55	-0.750			
0.5719	36603.38	3.5040	3.5040	-1.7824	6.45	0.56	-0.750			
0.5774	36953.53	3.5010	3.5010	-1.7952	6.45	0.56	-0.750			
0.5828	37301.37	3.4980	3.4980	-1.7838	6.46	0.57	-0.750			
0.5882	37643.99	3.4950	3.4950	-1.7680	6.46	0.57	-0.750			
0.5934	37975.38	3.4920	3.4921	-1.7566	6.46	0.57	-0.750			
0.5987	38313.72	3.4890	3.4890	-1.7321	6.47	0.58	-0.750			
0.6038	38644.58	3.4860	3.4858	-1.7122	6.48	0.59	-0.750			
0.6090	38974.68	3.4830	3.4832	-1.7013	6.48	0.59	-0.750			
0.6140	39298.75	3.4800	3.4801	-1.6727	6.49	0.60	-0.750			
0.6190	39618.89	3.4770	3.4769	-1.6504	6.51	0.62	-0.750			
0.6239	39929.25	3.4740	3.4741	-1.6251	6.52	0.63	-0.750			
0.6288	40241.38	3.4710	3.4710	-1.5856	6.53	0.64	-0.750			
0.6335	40546.50	3.4680	3.4679	-1.5540	6.54	0.65	-0.750			
0.6381	40841.55	3.4650	3.4651	-1.5286	6.55	0.66	-0.750			
0.6427	41129.92	3.4620	3.4617	-1.4993	6.57	0.68	-0.750			
0.6471	41413.91	3.4590	3.4589	-1.4786	6.58	0.69	-0.750			
0.6515	41695.81	3.4560	3.4561	-1.4459	6.59	0.70	-0.750			
0.6558	41970.98	3.4530	3.4529	-1.4191	6.60	0.71	-0.750			
0.6601	42243.95	3.4500	3.4500	-1.4079	6.61	0.72	-0.750			
0.6642	42506.08	3.4470	3.4469	-1.3688	6.63	0.74	-0.750			
0.6683	42770.36	3.4440	3.4439	-1.3549	6.64	0.75	-0.750			
0.6723	43027.32	3.4410	3.4410	-1.3229	6.66	0.77	-0.750			
0.6762	43279.55	3.4380	3.4381	-1.2999	6.67	0.78	-0.750			
0.6802	43530.77	3.4350	3.4350	-1.2746	6.68	0.79	-0.750			
0.6839	43771.47	3.4320	3.4319	-1.2376	6.69	0.80	-0.750			
0.6875	44001.60	3.4290	3.4292	-1.2037	6.70	0.81	-0.750			
0.6911	44232.73	3.4260	3.4260	-1.1781	6.71	0.82	-0.750			
0.6946	44456.70	3.4230	3.4229	-1.1472	6.72	0.83	-0.750			
0.6980	44674.04	3.4200	3.4199	-1.1187	6.73	0.84	-0.750			
0.7013	44883.62	3.4170	3.4171	-1.0877	6.74	0.85	-0.750			
0.7045	45091.01	3.4140	3.4140	-1.0580	6.75	0.86	-0.750			
0.7077	45292.41	3.4110	3.4109	-1.0239	6.77	0.88	-0.750			
0.7107	45482.67	3.4080	3.4081	-0.9900	6.78	0.89	-0.750			
0.7136	45671.87	3.4050	3.4050	-0.9687	6.80	0.91	-0.750			
0.7165	45854.62	3.4020	3.4020	-0.9436	6.81	0.92	-0.750			
0.7193	46034.05	3.3990	3.3989	-0.9109	6.82	0.93	-0.750			
0.7220	46206.47	3.3960	3.3960	-0.8831	6.84	0.95	-0.750			
0.7246	46374.61	3.3930	3.3932	-0.8566	6.85	0.96	-0.750			
0.7272	46537.61	3.3900	3.3899	-0.8263	6.86	0.97	-0.750			
0.7296	46691.58	3.3870	3.3870	-0.7903	6.87	0.98	-0.750			
0.7319	46838.63	3.3840	3.3840	-0.7695	6.88	0.99	-0.750			
0.7341	46985.49	3.3810	3.3810	-0.7670	6.89	1.00	-0.750			
