Ah_balance (normalized)	Ah_balance (mAh)	Voltage - fit (V)	Voltage -  interpolate (V)	dQ/dV (1/V)	Temperature (°C)	Temperature - diff (°C)	Current (C)	R_DC 0ms (mOhm)	R_DC 50ms (mOhm)	R_DC 50 ms PEC (mOhm)
0.0909	5819.23	4.0000	4.0001	-0.1200	5.98	0.01	-0.750			
0.0913	5844.34	3.9970	3.9970	-0.1428	5.98	0.01	-0.750			
0.0918	5874.52	3.9940	3.9939	-0.1654	5.98	0.01	-0.750			
0.0923	5908.44	3.9910	3.9910	-0.1867	5.97	0.00	-0.750			
0.0929	5946.26	3.9880	3.9880	-0.2090	5.97	0.00	-0.750			
0.0936	5988.66	3.9850	3.9850	-0.2310	5.97	0.00	-0.750			
0.0943	6034.34	3.9820	3.9820	-0.2542	5.97	-0.00	-0.750			
0.0951	6085.31	3.9790	3.9791	-0.2798	5.97	-0.00	-0.750			
0.0960	6141.18	3.9760	3.9760	-0.3032	5.96	-0.01	-0.750			
0.0969	6201.61	3.9730	3.9730	-0.3282	5.96	-0.01	-0.750			
0.0979	6266.82	3.9700	3.9701	-0.3552	5.96	-0.01	-0.750			
0.0990	6337.34	3.9670	3.9670	-0.3821	5.95	-0.02	-0.750			
0.1002	6413.54	3.9640	3.9640	-0.4083	5.95	-0.02	-0.750			
0.1015	6494.41	3.9610	3.9610	-0.4360	5.95	-0.02	-0.750			
0.1028	6580.76	3.9580	3.9581	-0.4638	5.94	-0.03	-0.750			
0.1043	6673.33	3.9550	3.9549	-0.4908	5.94	-0.03	-0.750			
0.1058	6770.26	3.9520	3.9520	-0.5159	5.93	-0.04	-0.750			
0.1074	6871.92	3.9490	3.9489	-0.5387	5.93	-0.04	-0.750			
0.1090	6977.87	3.9460	3.9460	-0.5621	5.93	-0.04	-0.750			
0.1108	7088.20	3.9430	3.9430	-0.5824	5.93	-0.04	-0.750			
0.1125	7201.14	3.9400	3.9400	-0.6022	5.93	-0.04	-0.750			
0.1144	7319.92	3.9370	3.9370	-0.6219	5.93	-0.04	-0.750			
0.1163	7441.70	3.9340	3.9339	-0.6400	5.93	-0.04	-0.750			
0.1182	7567.09	3.9310	3.9310	-0.6560	5.93	-0.04	-0.750			
0.1202	7695.18	3.9280	3.9280	-0.6698	5.93	-0.04	-0.750			
0.1223	7825.36	3.9250	3.9250	-0.6835	5.93	-0.04	-0.750			
0.1243	7957.94	3.9220	3.9220	-0.6968	5.93	-0.04	-0.750			
0.1264	8092.34	3.9190	3.9190	-0.7071	5.93	-0.04	-0.750			
0.1286	8230.13	3.9160	3.9159	-0.7178	5.93	-0.04	-0.750			
0.1308	8368.84	3.9130	3.9131	-0.7254	5.93	-0.04	-0.750			
0.1330	8509.36	3.9100	3.9100	-0.7371	5.93	-0.04	-0.750			
0.1352	8651.92	3.9070	3.9070	-0.7427	5.93	-0.04	-0.750			
0.1374	8795.71	3.9040	3.9039	-0.7507	5.93	-0.04	-0.750			
0.1397	8941.13	3.9010	3.9010	-0.7557	5.93	-0.04	-0.750			
0.1420	9087.50	3.8980	3.8980	-0.7625	5.93	-0.04	-0.750			
0.1443	9234.46	3.8950	3.8951	-0.7688	5.93	-0.04	-0.750			
0.1466	9382.85	3.8920	3.8920	-0.7713	5.93	-0.04	-0.750			
0.1489	9532.47	3.8890	3.8889	-0.7677	5.94	-0.03	-0.750			
0.1513	9681.30	3.8860	3.8861	-0.7622	5.94	-0.03	-0.750			
0.1536	9827.51	3.8830	3.8830	-0.7651	5.95	-0.02	-0.750			
0.1558	9972.82	3.8800	3.8802	-0.7616	5.95	-0.02	-0.750			
0.1581	10116.24	3.8770	3.8768	-0.7639	5.95	-0.02	-0.750			
0.1603	10261.42	3.8740	3.8740	-0.7745	5.95	-0.02	-0.750			
0.1627	10410.70	3.8710	3.8711	-0.7851	5.96	-0.01	-0.750			
0.1650	10563.02	3.8680	3.8680	-0.7994	5.96	-0.01	-0.750			
0.1675	10721.51	3.8650	3.8649	-0.8053	5.96	-0.01	-0.750			
0.1699	10876.38	3.8620	3.8620	-0.8081	5.96	-0.01	-0.750			
0.1724	11031.12	3.8590	3.8591	-0.8189	5.96	-0.01	-0.750			
0.1748	11189.35	3.8560	3.8558	-0.8198	5.96	-0.01	-0.750			
0.1773	11346.79	3.8530	3.8530	-0.8199	5.97	-0.00	-0.750			
0.1798	11505.47	3.8500	3.8500	-0.8204	5.97	-0.00	-0.750			
0.1823	11664.01	3.8470	3.8470	-0.8210	5.97	0.00	-0.750			
0.1847	11821.42	3.8440	3.8440	-0.8266	5.98	0.01	-0.750			
0.1872	11978.99	3.8410	3.8409	-0.8211	5.98	0.01	-0.750			
0.1896	12135.22	3.8380	3.8380	-0.8180	5.98	0.01	-0.750			
0.1921	12294.67	3.8350	3.8349	-0.8222	5.99	0.02	-0.750			
0.1946	12452.34	3.8320	3.8321	-0.8243	5.99	0.02	-0.750			
0.1970	12609.18	3.8290	3.8290	-0.8318	6.00	0.03	-0.750			
0.1995	12768.52	3.8260	3.8259	-0.8318	6.00	0.03	-0.750			
0.2020	12927.74	3.8230	3.8230	-0.8303	6.01	0.04	-0.750			
0.2045	13090.42	3.8200	3.8200	-0.8397	6.02	0.05	-0.750			
0.2071	13253.53	3.8170	3.8170	-0.8401	6.02	0.05	-0.750			
0.2096	13413.72	3.8140	3.8140	-0.8449	6.03	0.06	-0.750			
0.2121	13575.45	3.8110	3.8110	-0.8404	6.03	0.06	-0.750			
0.2146	13736.44	3.8080	3.8080	-0.8369	6.04	0.07	-0.750			
0.2172	13898.86	3.8050	3.8050	-0.8442	6.05	0.08	-0.750			
0.2197	14060.63	3.8020	3.8021	-0.8453	6.05	0.08	-0.750			
0.2222	14222.06	3.7990	3.7989	-0.8441	6.06	0.09	-0.750			
0.2247	14383.37	3.7960	3.7960	-0.8465	6.06	0.09	-0.750			
0.2273	14544.44	3.7930	3.7931	-0.8467	6.06	0.09	-0.750			
0.2298	14709.86	3.7900	3.7899	-0.8528	6.07	0.10	-0.750			
0.2324	14874.91	3.7870	3.7870	-0.8534	6.07	0.10	-0.750			
0.2350	15037.80	3.7840	3.7841	-0.8522	6.08	0.11	-0.750			
0.2375	15202.46	3.7810	3.7810	-0.8496	6.09	0.12	-0.750			
0.2401	15364.65	3.7780	3.7780	-0.8444	6.10	0.13	-0.750			
0.2426	15526.96	3.7750	3.7749	-0.8476	6.11	0.14	-0.750			
0.2451	15689.07	3.7720	3.7719	-0.8468	6.11	0.14	-0.750			
0.2477	15851.23	3.7690	3.7690	-0.8525	6.12	0.15	-0.750			
0.2502	16014.69	3.7660	3.7661	-0.8574	6.12	0.15	-0.750			
0.2528	16180.80	3.7630	3.7629	-0.8546	6.12	0.15	-0.750			
0.2554	16346.87	3.7600	3.7600	-0.8575	6.13	0.16	-0.750			
0.2580	16511.03	3.7570	3.7570	-0.8580	6.14	0.17	-0.750			
0.2605	16674.92	3.7540	3.7540	-0.8585	6.14	0.17	-0.750			
0.2631	16839.87	3.7510	3.7509	-0.8590	6.15	0.18	-0.750			
0.2657	17004.54	3.7480	3.7480	-0.8542	6.16	0.19	-0.750			
0.2683	17169.13	3.7450	3.7450	-0.8583	6.17	0.20	-0.750			
0.2709	17334.69	3.7420	3.7421	-0.8612	6.17	0.20	-0.750			
0.2734	17500.09	3.7390	3.7390	-0.8569	6.18	0.21	-0.750			
0.2760	17663.41	3.7360	3.7359	-0.8574	6.18	0.21	-0.750			
0.2785	17827.17	3.7330	3.7330	-0.8615	6.19	0.22	-0.750			
0.2811	17993.06	3.7300	3.7302	-0.8644	6.19	0.22	-0.750			
0.2837	18159.82	3.7270	3.7270	-0.8683	6.20	0.23	-0.750			
0.2863	18326.33	3.7240	3.7240	-0.8694	6.20	0.23	-0.750			
0.2890	18494.42	3.7210	3.7210	-0.8757	6.21	0.24	-0.750			
0.2916	18663.49	3.7180	3.7180	-0.8802	6.22	0.25	-0.750			
0.2942	18831.41	3.7150	3.7151	-0.8795	6.22	0.25	-0.750			
0.2969	19000.39	3.7120	3.7121	-0.8825	6.23	0.26	-0.750			
0.2996	19171.44	3.7090	3.7090	-0.8863	6.23	0.26	-0.750			
0.3022	19341.34	3.7060	3.7059	-0.8856	6.24	0.27	-0.750			
0.3049	19511.55	3.7030	3.7030	-0.8886	6.25	0.28	-0.750			
0.3075	19681.73	3.7000	3.7000	-0.8904	6.25	0.28	-0.750			
0.3102	19853.53	3.6970	3.6970	-0.8959	6.25	0.28	-0.750			
0.3129	20025.57	3.6940	3.6940	-0.9018	6.26	0.29	-0.750			
0.3156	20197.88	3.6910	3.6910	-0.9091	6.26	0.29	-0.750			
0.3183	20373.21	3.6880	3.6881	-0.9206	6.26	0.29	-0.750			
0.3211	20549.35	3.6850	3.6850	-0.9376	6.26	0.29	-0.750			
0.3239	20732.52	3.6820	3.6820	-0.9421	6.27	0.30	-0.750			
0.3268	20915.88	3.6790	3.6790	-0.9510	6.27	0.30	-0.750			
0.3297	21098.99	3.6760	3.6760	-0.9578	6.28	0.31	-0.750			
0.3326	21283.97	3.6730	3.6729	-0.9652	6.28	0.31	-0.750			
0.3355	21469.50	3.6700	3.6699	-0.9779	6.29	0.32	-0.750			
0.3384	21655.18	3.6670	3.6670	-0.9909	6.30	0.33	-0.750			
0.3413	21845.95	3.6640	3.6640	-1.0052	6.30	0.33	-0.750			
0.3444	22044.14	3.6610	3.6611	-1.0254	6.31	0.34	-0.750			
0.3475	22242.75	3.6580	3.6580	-1.0363	6.31	0.34	-0.750			
0.3507	22442.81	3.6550	3.6550	-1.0474	6.31	0.34	-0.750			
0.3538	22644.37	3.6520	3.6519	-1.0578	6.31	0.34	-0.750			
0.3570	22847.63	3.6490	3.6491	-1.0767	6.31	0.34	-0.750			
0.3602	23055.89	3.6460	3.6459	-1.0855	6.32	0.35	-0.750			
0.3635	23266.66	3.6430	3.6430	-1.0987	6.32	0.35	-0.750			
0.3669	23478.59	3.6400	3.6400	-1.1127	6.33	0.36	-0.750			
0.3702	23693.25	3.6370	3.6370	-1.1333	6.33	0.36	-0.750			
0.3736	23912.27	3.6340	3.6339	-1.1480	6.34	0.37	-0.750			
0.3771	24134.19	3.6310	3.6309	-1.1596	6.34	0.37	-0.750			
0.3806	24357.89	3.6280	3.6281	-1.1729	6.35	0.38	-0.750			
0.3842	24586.37	3.6250	3.6250	-1.2000	6.35	0.38	-0.750			
0.3878	24817.88	3.6220	3.6219	-1.2162	6.35	0.38	-0.750			
0.3914	25051.46	3.6190	3.6189	-1.2324	6.35	0.38	-0.750			
0.3951	25289.38	3.6160	3.6161	-1.2411	6.35	0.38	-0.750			
0.3989	25532.69	3.6130	3.6130	-1.2592	6.35	0.38	-0.750			
0.4027	25775.19	3.6100	3.6100	-1.2795	6.36	0.39	-0.750			
0.4066	26020.32	3.6070	3.6071	-1.2911	6.36	0.39	-0.750			
0.4105	26271.68	3.6040	3.6038	-1.3110	6.36	0.39	-0.750			
0.4145	26525.25	3.6010	3.6011	-1.3302	6.35	0.38	-0.750	0.497	1.165	
0.4185	26782.35	3.5980	3.5982	-1.3563	6.35	0.38	-0.750			
0.4226	27047.07	3.5950	3.5949	-1.3801	6.35	0.38	-0.750			
0.4267	27311.45	3.5920	3.5920	-1.4140	6.36	0.39	-0.750			
0.4310	27585.74	3.5890	3.5890	-1.4384	6.36	0.39	-0.750			
0.4354	27868.30	3.5860	3.5859	-1.4654	6.36	0.39	-0.750			
0.4399	28152.71	3.5830	3.5834	-1.4730	6.36	0.39	-0.750			
0.4443	28436.21	3.5800	3.5801	-1.4917	6.36	0.39	-0.750			
0.4488	28721.12	3.5770	3.5768	-1.5093	6.36	0.39	-0.750			
0.4533	29011.50	3.5740	3.5740	-1.5247	6.35	0.38	-0.750			
0.4579	29303.28	3.5710	3.5711	-1.5614	6.35	0.38	-0.750			
0.4627	29610.43	3.5680	3.5679	-1.5800	6.35	0.38	-0.750			
0.4674	29915.58	3.5650	3.5649	-1.5992	6.35	0.38	-0.750			
0.4723	30224.81	3.5620	3.5620	-1.6114	6.35	0.38	-0.750			
0.4771	30536.42	3.5590	3.5588	-1.6357	6.35	0.38	-0.750			
0.4820	30849.82	3.5560	3.5561	-1.6471	6.35	0.38	-0.750			
0.4870	31165.95	3.5530	3.5531	-1.6684	6.36	0.39	-0.750			
0.4920	31486.51	3.5500	3.5501	-1.6847	6.37	0.40	-0.750			
0.4971	31815.87	3.5470	3.5468	-1.7117	6.37	0.40	-0.750			
0.5024	32151.05	3.5440	3.5438	-1.7313	6.37	0.40	-0.750			
0.5076	32489.54	3.5410	3.5410	-1.7572	6.37	0.40	-0.750			
0.5129	32823.57	3.5380	3.5381	-1.7757	6.36	0.39	-0.750			
0.5183	33168.33	3.5350	3.5351	-1.7783	6.35	0.38	-0.750			
0.5236	33510.08	3.5320	3.5320	-1.7925	6.36	0.39	-0.750			
0.5291	33859.67	3.5290	3.5290	-1.8019	6.37	0.40	-0.750			
0.5345	34206.93	3.5260	3.5258	-1.8130	6.37	0.40	-0.750			
0.5400	34557.09	3.5230	3.5230	-1.8134	6.37	0.40	-0.750			
0.5453	34901.96	3.5200	3.5200	-1.7956	6.37	0.40	-0.750			
0.5508	35249.33	3.5170	3.5170	-1.8054	6.37	0.40	-0.750			
0.5562	35599.22	3.5140	3.5141	-1.7922	6.37	0.40	-0.750			
0.5615	35938.37	3.5110	3.5111	-1.7996	6.37	0.40	-0.750			
0.5670	36287.58	3.5080	3.5080	-1.7931	6.37	0.40	-0.750			
0.5723	36627.16	3.5050	3.5050	-1.7961	6.37	0.40	-0.750			
0.5777	36975.63	3.5020	3.5020	-1.7854	6.37	0.40	-0.750			
0.5832	37323.29	3.4990	3.4989	-1.7828	6.37	0.40	-0.750			
0.5885	37661.09	3.4960	3.4961	-1.7678	6.38	0.41	-0.750			
0.5938	38000.60	3.4930	3.4931	-1.7652	6.39	0.42	-0.750			
0.5990	38333.79	3.4900	3.4900	-1.7348	6.39	0.42	-0.750			
0.6042	38670.58	3.4870	3.4869	-1.7191	6.39	0.42	-0.750			
0.6093	38994.92	3.4840	3.4840	-1.6920	6.39	0.42	-0.750			
0.6144	39322.00	3.4810	3.4809	-1.6836	6.40	0.43	-0.750			
0.6194	39639.68	3.4780	3.4781	-1.6584	6.40	0.43	-0.750			
0.6243	39957.06	3.4750	3.4747	-1.6239	6.40	0.43	-0.750			
0.6292	40266.74	3.4720	3.4720	-1.6072	6.41	0.44	-0.750			
0.6340	40578.09	3.4690	3.4689	-1.5878	6.42	0.45	-0.750			
0.6388	40882.24	3.4660	3.4659	-1.5605	6.43	0.46	-0.750			
0.6433	41173.91	3.4630	3.4632	-1.5248	6.45	0.48	-0.750			
0.6479	41466.97	3.4600	3.4599	-1.5104	6.46	0.49	-0.750			
0.6524	41750.78	3.4570	3.4570	-1.4763	6.46	0.49	-0.750			
0.6568	42033.81	3.4540	3.4541	-1.4630	6.47	0.50	-0.750			
0.6612	42314.30	3.4510	3.4509	-1.4342	6.48	0.51	-0.750			
0.6654	42587.90	3.4480	3.4480	-1.4024	6.48	0.51	-0.750			
0.6696	42853.86	3.4450	3.4452	-1.3691	6.49	0.52	-0.750			
0.6737	43115.05	3.4420	3.4418	-1.3368	6.50	0.53	-0.750			
0.6776	43367.24	3.4390	3.4390	-1.3003	6.51	0.54	-0.750			
0.6814	43610.78	3.4360	3.4361	-1.2665	6.52	0.55	-0.750			
0.6852	43853.25	3.4330	3.4330	-1.2395	6.54	0.57	-0.750			
0.6889	44088.70	3.4300	3.4299	-1.2038	6.55	0.58	-0.750			
0.6924	44313.53	3.4270	3.4270	-1.1705	6.57	0.60	-0.750			
0.6959	44534.87	3.4240	3.4240	-1.1523	6.58	0.61	-0.750			
0.6993	44754.47	3.4210	3.4209	-1.1214	6.59	0.62	-0.750			
0.7026	44967.28	3.4180	3.4179	-1.0901	6.60	0.63	-0.750			
0.7058	45174.20	3.4150	3.4153	-1.0603	6.61	0.64	-0.750			
0.7090	45377.88	3.4120	3.4120	-1.0368	6.62	0.65	-0.750			
0.7121	45573.80	3.4090	3.4089	-1.0037	6.64	0.67	-0.750			
0.7150	45759.08	3.4060	3.4060	-0.9665	6.65	0.68	-0.750			
0.7179	45943.25	3.4030	3.4030	-0.9421	6.67	0.70	-0.750			
0.7207	46121.62	3.4000	3.4000	-0.9141	6.68	0.71	-0.750			
0.7234	46294.47	3.3970	3.3970	-0.8841	6.69	0.72	-0.750			
0.7260	46461.04	3.3940	3.3940	-0.8554	6.70	0.73	-0.750			
0.7285	46621.09	3.3910	3.3910	-0.8285	6.71	0.74	-0.750			
0.7309	46777.84	3.3880	3.3880	-0.8047	6.72	0.75	-0.750			
0.7333	46929.87	3.3850	3.3850	-0.7849	6.73	0.76	-0.750			
0.7356	47078.60	3.3820	3.3820	-0.7618	6.74	0.77	-0.750			
