Ah_balance (normalized)	Ah_balance (mAh)	Voltage - fit (V)	Voltage -  interpolate (V)	dQ/dV (1/V)	Temperature (°C)	Temperature - diff (°C)	Current (C)	R_DC 0ms (mOhm)	R_DC 50ms (mOhm)	R_DC 50 ms PEC (mOhm)
-0.2810	-17985.69	4.0050	4.0046	-0.0792	5.99	0.00	-0.750			
-0.2807	-17966.45	4.0020	4.0017	-0.1119	5.99	0.00	-0.750			
-0.2803	-17942.38	3.9990	3.9988	-0.1389	5.99	0.00	-0.750			
-0.2799	-17912.65	3.9960	3.9960	-0.1637	5.99	0.00	-0.750			
-0.2794	-17878.76	3.9930	3.9931	-0.1890	5.99	-0.00	-0.750			
-0.2787	-17839.98	3.9900	3.9900	-0.2131	5.99	-0.00	-0.750			
-0.2781	-17795.86	3.9870	3.9870	-0.2373	5.99	-0.00	-0.750			
-0.2773	-17748.36	3.9840	3.9840	-0.2605	5.99	-0.00	-0.750			
-0.2765	-17696.17	3.9810	3.9810	-0.2845	5.99	-0.00	-0.750			
-0.2756	-17639.33	3.9780	3.9780	-0.3095	5.98	-0.01	-0.750			
-0.2746	-17577.53	3.9750	3.9750	-0.3342	5.98	-0.01	-0.750			
-0.2736	-17511.35	3.9720	3.9721	-0.3591	5.98	-0.01	-0.750			
-0.2725	-17439.81	3.9690	3.9690	-0.3839	5.98	-0.01	-0.750			
-0.2713	-17363.45	3.9660	3.9660	-0.4071	5.98	-0.01	-0.750			
-0.2700	-17282.74	3.9630	3.9630	-0.4304	5.97	-0.02	-0.750			
-0.2687	-17198.19	3.9600	3.9600	-0.4545	5.97	-0.02	-0.750			
-0.2673	-17108.61	3.9570	3.9571	-0.4777	5.97	-0.02	-0.750			
-0.2659	-17014.47	3.9540	3.9540	-0.5017	5.97	-0.02	-0.750			
-0.2643	-16916.22	3.9510	3.9510	-0.5257	5.97	-0.02	-0.750			
-0.2627	-16812.22	3.9480	3.9480	-0.5484	5.97	-0.02	-0.750			
-0.2610	-16704.84	3.9450	3.9450	-0.5725	5.97	-0.02	-0.750			
-0.2592	-16591.80	3.9420	3.9420	-0.5920	5.97	-0.02	-0.750			
-0.2574	-16475.93	3.9390	3.9390	-0.6091	5.97	-0.02	-0.750			
-0.2556	-16356.69	3.9360	3.9360	-0.6274	5.97	-0.02	-0.750			
-0.2537	-16234.37	3.9330	3.9330	-0.6411	5.97	-0.02	-0.750			
-0.2517	-16109.73	3.9300	3.9300	-0.6542	5.97	-0.02	-0.750			
-0.2497	-15982.77	3.9270	3.9270	-0.6676	5.97	-0.02	-0.750			
-0.2477	-15853.76	3.9240	3.9240	-0.6776	5.97	-0.02	-0.750			
-0.2456	-15721.17	3.9210	3.9210	-0.6862	5.97	-0.02	-0.750			
-0.2436	-15588.52	3.9180	3.9180	-0.6963	5.97	-0.02	-0.750			
-0.2415	-15454.31	3.9150	3.9151	-0.7032	5.97	-0.02	-0.750			
-0.2393	-15318.00	3.9120	3.9120	-0.7113	5.97	-0.02	-0.750			
-0.2372	-15181.63	3.9090	3.9090	-0.7206	5.98	-0.01	-0.750			
-0.2350	-15042.48	3.9060	3.9060	-0.7279	5.98	-0.01	-0.750			
-0.2328	-14900.97	3.9030	3.9030	-0.7365	5.98	-0.01	-0.750			
-0.2306	-14758.05	3.9000	3.9000	-0.7414	5.99	-0.00	-0.750			
-0.2284	-14615.35	3.8970	3.8970	-0.7447	5.99	0.00	-0.750			
-0.2261	-14471.14	3.8940	3.8940	-0.7480	6.00	0.01	-0.750			
-0.2239	-14327.42	3.8910	3.8910	-0.7504	6.00	0.01	-0.750			
-0.2216	-14184.23	3.8880	3.8880	-0.7521	6.00	0.01	-0.750			
-0.2194	-14039.48	3.8850	3.8850	-0.7588	6.01	0.02	-0.750			
-0.2171	-13893.78	3.8820	3.8820	-0.7651	6.01	0.02	-0.750			
-0.2148	-13745.77	3.8790	3.8790	-0.7688	6.02	0.03	-0.750			
-0.2125	-13597.39	3.8760	3.8760	-0.7747	6.02	0.03	-0.750			
-0.2101	-13447.20	3.8730	3.8730	-0.7755	6.03	0.04	-0.750			
-0.2078	-13297.91	3.8700	3.8700	-0.7771	6.04	0.05	-0.750			
-0.2055	-13148.83	3.8670	3.8670	-0.7778	6.05	0.06	-0.750			
-0.2031	-12999.82	3.8640	3.8640	-0.7785	6.06	0.07	-0.750			
-0.2008	-12850.72	3.8610	3.8610	-0.7800	6.07	0.08	-0.750			
-0.1984	-12700.31	3.8580	3.8580	-0.7821	6.08	0.09	-0.750			
-0.1961	-12550.70	3.8550	3.8550	-0.7864	6.09	0.10	-0.750			
-0.1937	-12398.45	3.8520	3.8520	-0.7906	6.10	0.11	-0.750			
-0.1914	-12246.71	3.8490	3.8490	-0.7930	6.11	0.12	-0.750			
-0.1890	-12093.58	3.8460	3.8460	-0.7952	6.12	0.13	-0.750			
-0.1866	-11940.50	3.8430	3.8430	-0.7981	6.13	0.14	-0.750			
-0.1842	-11786.92	3.8400	3.8400	-0.7990	6.14	0.15	-0.750			
-0.1818	-11633.05	3.8370	3.8370	-0.7998	6.15	0.16	-0.750			
-0.1794	-11479.73	3.8340	3.8340	-0.7973	6.16	0.17	-0.750			
-0.1770	-11326.46	3.8310	3.8310	-0.7990	6.17	0.18	-0.750			
-0.1746	-11173.55	3.8280	3.8280	-0.8010	6.19	0.20	-0.750			
-0.1722	-11019.69	3.8250	3.8250	-0.8031	6.20	0.21	-0.750			
-0.1698	-10865.44	3.8220	3.8219	-0.8054	6.21	0.22	-0.750			
-0.1674	-10710.41	3.8190	3.8191	-0.8084	6.23	0.24	-0.750			
-0.1649	-10554.47	3.8160	3.8160	-0.8106	6.24	0.25	-0.750			
-0.1625	-10398.25	3.8130	3.8130	-0.8128	6.25	0.26	-0.750			
-0.1600	-10242.59	3.8100	3.8100	-0.8119	6.26	0.27	-0.750			
-0.1576	-10086.67	3.8070	3.8070	-0.8127	6.27	0.28	-0.750			
-0.1552	-9929.79	3.8040	3.8040	-0.8136	6.29	0.30	-0.750			
-0.1527	-9773.61	3.8010	3.8009	-0.8134	6.30	0.31	-0.750			
-0.1503	-9617.77	3.7980	3.7980	-0.8145	6.31	0.32	-0.750			
-0.1478	-9461.20	3.7950	3.7950	-0.8144	6.32	0.33	-0.750			
-0.1454	-9305.12	3.7920	3.7920	-0.8136	6.33	0.34	-0.750			
-0.1429	-9148.65	3.7890	3.7890	-0.8171	6.35	0.36	-0.750			
-0.1405	-8991.76	3.7860	3.7860	-0.8195	6.36	0.37	-0.750			
-0.1380	-8834.29	3.7830	3.7830	-0.8233	6.37	0.38	-0.750			
-0.1355	-8675.10	3.7800	3.7800	-0.8220	6.38	0.39	-0.750			
-0.1331	-8516.90	3.7770	3.7770	-0.8210	6.39	0.40	-0.750			
-0.1306	-8358.77	3.7740	3.7740	-0.8199	6.40	0.41	-0.750			
-0.1281	-8201.52	3.7710	3.7710	-0.8174	6.41	0.42	-0.750			
-0.1257	-8046.05	3.7680	3.7680	-0.8175	6.41	0.42	-0.750			
-0.1233	-7889.67	3.7650	3.7650	-0.8180	6.42	0.43	-0.750			
-0.1208	-7733.11	3.7620	3.7620	-0.8190	6.43	0.44	-0.750			
-0.1183	-7574.04	3.7590	3.7590	-0.8224	6.44	0.45	-0.750			
-0.1159	-7415.83	3.7560	3.7560	-0.8248	6.45	0.46	-0.750			
-0.1134	-7257.46	3.7530	3.7530	-0.8277	6.46	0.47	-0.750			
-0.1109	-7098.67	3.7500	3.7500	-0.8292	6.47	0.48	-0.750			
-0.1084	-6939.21	3.7470	3.7469	-0.8300	6.48	0.49	-0.750			
-0.1059	-6779.15	3.7440	3.7440	-0.8303	6.49	0.50	-0.750			
-0.1034	-6619.98	3.7410	3.7410	-0.8333	6.49	0.50	-0.750			
-0.1009	-6460.58	3.7380	3.7380	-0.8386	6.50	0.51	-0.750			
-0.0984	-6299.13	3.7350	3.7349	-0.8380	6.51	0.52	-0.750			
-0.0959	-6137.92	3.7320	3.7319	-0.8403	6.52	0.53	-0.750			
-0.0934	-5975.79	3.7290	3.7290	-0.8429	6.53	0.54	-0.750			
-0.0908	-5813.34	3.7260	3.7260	-0.8478	6.53	0.54	-0.750			
-0.0883	-5650.88	3.7230	3.7230	-0.8521	6.54	0.55	-0.750			
-0.0858	-5488.47	3.7200	3.7200	-0.8530	6.55	0.56	-0.750			
-0.0832	-5324.80	3.7170	3.7170	-0.8586	6.56	0.57	-0.750			
-0.0806	-5157.28	3.7140	3.7140	-0.8679	6.57	0.58	-0.750			
-0.0780	-4990.09	3.7110	3.7110	-0.8734	6.57	0.58	-0.750			
-0.0753	-4822.00	3.7080	3.7080	-0.8802	6.58	0.59	-0.750			
-0.0727	-4653.44	3.7050	3.7050	-0.8856	6.58	0.59	-0.750			
-0.0700	-4481.77	3.7020	3.7020	-0.8910	6.59	0.60	-0.750			
-0.0673	-4309.67	3.6990	3.6989	-0.8970	6.59	0.60	-0.750			
-0.0647	-4138.31	3.6960	3.6960	-0.9071	6.60	0.61	-0.750			
-0.0619	-3962.53	3.6930	3.6930	-0.9130	6.61	0.62	-0.750			
-0.0592	-3787.05	3.6900	3.6899	-0.9209	6.61	0.62	-0.750			
-0.0564	-3609.49	3.6870	3.6870	-0.9287	6.62	0.63	-0.750			
-0.0536	-3430.28	3.6840	3.6841	-0.9377	6.63	0.64	-0.750			
-0.0508	-3249.14	3.6810	3.6809	-0.9484	6.64	0.65	-0.750			
-0.0479	-3066.12	3.6780	3.6780	-0.9560	6.64	0.65	-0.750			
-0.0450	-2883.02	3.6750	3.6750	-0.9662	6.65	0.66	-0.750			
-0.0421	-2694.89	3.6720	3.6720	-0.9803	6.65	0.66	-0.750			
-0.0392	-2506.41	3.6690	3.6690	-0.9919	6.65	0.66	-0.750			
-0.0362	-2314.06	3.6660	3.6660	-1.0046	6.66	0.67	-0.750			
-0.0331	-2119.55	3.6630	3.6630	-1.0137	6.66	0.67	-0.750			
-0.0301	-1924.04	3.6600	3.6600	-1.0226	6.67	0.68	-0.750			
-0.0270	-1726.64	3.6570	3.6570	-1.0387	6.67	0.68	-0.750			
-0.0239	-1527.04	3.6540	3.6540	-1.0517	6.68	0.69	-0.750			
-0.0207	-1324.18	3.6510	3.6510	-1.0654	6.68	0.69	-0.750			
-0.0175	-1119.15	3.6480	3.6480	-1.0790	6.69	0.70	-0.750			
-0.0142	-907.97	3.6450	3.6450	-1.0947	6.69	0.70	-0.750			
-0.0109	-695.47	3.6420	3.6420	-1.1053	6.70	0.71	-0.750			
-0.0075	-482.92	3.6390	3.6390	-1.1160	6.71	0.72	-0.750			
-0.0042	-269.58	3.6360	3.6360	-1.1300	6.71	0.72	-0.750			
-0.0008	-50.67	3.6330	3.6330	-1.1440	6.71	0.72	-0.750			
0.0027	170.43	3.6300	3.6299	-1.1595	6.71	0.72	-0.750			
0.0062	394.98	3.6270	3.6270	-1.1721	6.71	0.72	-0.750			
0.0097	621.53	3.6240	3.6240	-1.1936	6.71	0.72	-0.750			
0.0133	852.25	3.6210	3.6210	-1.2110	6.71	0.72	-0.750			
0.0170	1086.18	3.6180	3.6180	-1.2257	6.71	0.72	-0.750			
0.0207	1322.68	3.6150	3.6152	-1.2422	6.71	0.72	-0.750			
0.0244	1564.19	3.6120	3.6120	-1.2649	6.71	0.72	-0.750			
0.0283	1809.65	3.6090	3.6090	-1.2794	6.71	0.72	-0.750			
0.0321	2056.72	3.6060	3.6060	-1.2951	6.71	0.72	-0.750			
0.0360	2306.52	3.6030	3.6030	-1.3114	6.71	0.72	-0.750	0.460	1.114	
0.0400	2559.59	3.6000	3.6000	-1.3265	6.71	0.72	-0.750			
0.0440	2815.96	3.5970	3.5970	-1.3438	6.71	0.72	-0.750			
0.0481	3075.34	3.5940	3.5940	-1.3578	6.71	0.72	-0.750			
0.0522	3338.91	3.5910	3.5910	-1.3706	6.71	0.72	-0.750			
0.0563	3603.11	3.5880	3.5879	-1.3902	6.71	0.72	-0.750			
0.0605	3870.93	3.5850	3.5849	-1.4053	6.71	0.72	-0.750			
0.0647	4142.24	3.5820	3.5819	-1.4215	6.70	0.71	-0.750			
0.0690	4416.13	3.5790	3.5790	-1.4418	6.70	0.71	-0.750			
0.0733	4692.20	3.5760	3.5760	-1.4634	6.70	0.71	-0.750			
0.0778	4979.87	3.5730	3.5729	-1.4842	6.69	0.70	-0.750			
0.0823	5267.30	3.5700	3.5700	-1.5069	6.69	0.70	-0.750			
0.0868	5557.47	3.5670	3.5670	-1.5250	6.69	0.70	-0.750			
0.0915	5854.17	3.5640	3.5639	-1.5482	6.69	0.70	-0.750			
0.0962	6154.36	3.5610	3.5611	-1.5583	6.69	0.70	-0.750			
0.1008	6453.41	3.5580	3.5581	-1.5663	6.69	0.70	-0.750			
0.1056	6756.68	3.5550	3.5550	-1.5803	6.69	0.70	-0.750			
0.1103	7058.92	3.5520	3.5520	-1.5998	6.69	0.70	-0.750			
0.1151	7367.78	3.5490	3.5490	-1.6193	6.70	0.71	-0.750			
0.1200	7681.22	3.5460	3.5459	-1.6350	6.71	0.72	-0.750			
0.1249	7995.40	3.5430	3.5430	-1.6612	6.71	0.72	-0.750			
0.1300	8318.23	3.5400	3.5401	-1.6699	6.71	0.72	-0.750			
0.1350	8642.99	3.5370	3.5369	-1.6813	6.71	0.72	-0.750			
0.1401	8965.46	3.5340	3.5340	-1.6911	6.71	0.72	-0.750			
0.1452	9290.89	3.5310	3.5309	-1.6968	6.71	0.72	-0.750			
0.1503	9619.51	3.5280	3.5280	-1.7100	6.71	0.72	-0.750			
0.1555	9950.06	3.5250	3.5249	-1.7104	6.71	0.72	-0.750			
0.1606	10275.31	3.5220	3.5221	-1.7136	6.71	0.72	-0.750			
0.1658	10608.84	3.5190	3.5190	-1.7208	6.71	0.72	-0.750			
0.1709	10937.07	3.5160	3.5161	-1.7210	6.71	0.72	-0.750			
0.1761	11267.68	3.5130	3.5130	-1.7154	6.71	0.72	-0.750			
0.1812	11599.21	3.5100	3.5101	-1.7090	6.71	0.72	-0.750			
0.1863	11925.74	3.5070	3.5071	-1.7199	6.72	0.73	-0.750			
0.1916	12260.34	3.5040	3.5040	-1.7161	6.72	0.73	-0.750			
0.1967	12587.70	3.5010	3.5009	-1.7064	6.73	0.74	-0.750			
0.2018	12916.85	3.4980	3.4981	-1.7025	6.73	0.74	-0.750			
0.2069	13243.95	3.4950	3.4950	-1.6960	6.73	0.74	-0.750			
0.2120	13568.66	3.4920	3.4919	-1.6930	6.74	0.75	-0.750			
0.2171	13893.61	3.4890	3.4890	-1.6818	6.74	0.75	-0.750			
0.2220	14211.10	3.4860	3.4860	-1.6677	6.75	0.76	-0.750			
0.2271	14534.22	3.4830	3.4829	-1.6626	6.76	0.77	-0.750			
0.2321	14853.62	3.4800	3.4800	-1.6458	6.76	0.77	-0.750			
0.2370	15168.14	3.4770	3.4770	-1.6233	6.76	0.77	-0.750			
0.2419	15478.92	3.4740	3.4740	-1.5992	6.77	0.78	-0.750			
0.2466	15782.18	3.4710	3.4712	-1.5772	6.77	0.78	-0.750			
0.2513	16084.11	3.4680	3.4679	-1.5620	6.78	0.79	-0.750			
0.2560	16381.72	3.4650	3.4650	-1.5386	6.79	0.80	-0.750			
0.2606	16676.07	3.4620	3.4620	-1.5211	6.79	0.80	-0.750			
0.2651	16967.96	3.4590	3.4590	-1.4991	6.80	0.81	-0.750			
0.2696	17253.71	3.4560	3.4560	-1.4767	6.81	0.82	-0.750			
0.2740	17536.72	3.4530	3.4529	-1.4497	6.82	0.83	-0.750			
0.2783	17812.41	3.4500	3.4499	-1.4158	6.84	0.85	-0.750			
0.2825	18080.86	3.4470	3.4471	-1.3876	6.85	0.86	-0.750			
0.2866	18344.43	3.4440	3.4440	-1.3583	6.86	0.87	-0.750			
0.2907	18601.74	3.4410	3.4410	-1.3315	6.87	0.88	-0.750			
0.2946	18853.75	3.4380	3.4380	-1.3098	6.89	0.90	-0.750			
0.2985	19101.64	3.4350	3.4350	-1.2781	6.89	0.90	-0.750			
0.3023	19347.74	3.4320	3.4320	-1.2578	6.90	0.91	-0.750			
0.3060	19586.72	3.4290	3.4290	-1.2311	6.91	0.92	-0.750			
0.3097	19820.49	3.4260	3.4260	-1.2060	6.92	0.93	-0.750			
0.3133	20050.20	3.4230	3.4230	-1.1780	6.93	0.94	-0.750			
0.3168	20273.21	3.4200	3.4199	-1.1479	6.95	0.96	-0.750			
0.3202	20491.05	3.4170	3.4172	-1.1186	6.96	0.97	-0.750			
0.3235	20705.06	3.4140	3.4139	-1.0911	6.97	0.98	-0.750			
0.3267	20910.49	3.4110	3.4110	-1.0592	6.97	0.98	-0.750			
0.3298	21110.15	3.4080	3.4080	-1.0306	6.98	0.99	-0.750			
0.3329	21303.37	3.4050	3.4050	-1.0011	6.99	1.00	-0.750			
0.3359	21495.25	3.4020	3.4020	-0.9755	7.00	1.01	-0.750			
0.3387	21679.54	3.3990	3.3990	-0.9478	7.02	1.03	-0.750			
0.3415	21858.95	3.3960	3.3960	-0.9201	7.03	1.04	-0.750			
0.3443	22032.77	3.3930	3.3930	-0.8946	7.04	1.05	-0.750			
0.3469	22201.69	3.3900	3.3900	-0.8663	7.06	1.07	-0.750			
0.3495	22365.33	3.3870	3.3870	-0.8418	7.07	1.08	-0.750			
0.3519	22524.59	3.3840	3.3840	-0.8171	7.08	1.09	-0.750			
0.3544	22679.14	3.3810	3.3810	-0.7920	7.09	1.10	-0.750			
0.3567	22829.02	3.3780	3.3780	-0.7711	7.10	1.11	-0.750			
