Ah_balance (normalized)	Ah_balance (mAh)	Voltage - fit (V)	Voltage -  interpolate (V)	dQ/dV (1/V)	Temperature (°C)	Temperature - diff (°C)	Current (C)	R_DC 0ms (mOhm)	R_DC 50ms (mOhm)	R_DC 50 ms PEC (mOhm)
0.0691	4423.39	4.0000	3.9994	-0.0759	5.99	0.00	-0.750			
0.0694	4441.57	3.9970	3.9967	-0.1076	5.99	0.00	-0.750			
0.0698	4465.00	3.9940	3.9939	-0.1351	5.99	0.00	-0.750			
0.0702	4494.20	3.9910	3.9909	-0.1609	5.99	0.00	-0.750			
0.0707	4527.84	3.9880	3.9880	-0.1848	5.99	0.00	-0.750			
0.0713	4565.76	3.9850	3.9850	-0.2079	5.99	0.00	-0.750			
0.0720	4609.02	3.9820	3.9821	-0.2306	5.99	-0.00	-0.750			
0.0727	4655.01	3.9790	3.9790	-0.2528	5.99	-0.00	-0.750			
0.0735	4705.56	3.9760	3.9760	-0.2759	5.99	-0.00	-0.750			
0.0744	4760.40	3.9730	3.9729	-0.2987	5.99	-0.00	-0.750			
0.0753	4819.43	3.9700	3.9700	-0.3243	5.98	-0.01	-0.750			
0.0763	4884.38	3.9670	3.9670	-0.3491	5.98	-0.01	-0.750			
0.0774	4953.67	3.9640	3.9640	-0.3757	5.98	-0.01	-0.750			
0.0786	5028.78	3.9610	3.9611	-0.3995	5.98	-0.01	-0.750			
0.0798	5107.69	3.9580	3.9580	-0.4255	5.98	-0.01	-0.750			
0.0811	5191.84	3.9550	3.9550	-0.4517	5.98	-0.01	-0.750			
0.0825	5281.20	3.9520	3.9520	-0.4766	5.97	-0.02	-0.750			
0.0840	5374.79	3.9490	3.9491	-0.5017	5.97	-0.02	-0.750			
0.0855	5474.68	3.9460	3.9459	-0.5262	5.97	-0.02	-0.750			
0.0872	5577.67	3.9430	3.9430	-0.5493	5.97	-0.02	-0.750			
0.0889	5686.89	3.9400	3.9400	-0.5695	5.96	-0.03	-0.750			
0.0906	5797.21	3.9370	3.9370	-0.5898	5.96	-0.03	-0.750			
0.0924	5913.34	3.9340	3.9340	-0.6087	5.96	-0.03	-0.750			
0.0943	6032.26	3.9310	3.9310	-0.6272	5.95	-0.04	-0.750			
0.0962	6155.16	3.9280	3.9280	-0.6414	5.95	-0.04	-0.750			
0.0981	6279.69	3.9250	3.9250	-0.6574	5.95	-0.04	-0.750			
0.1001	6407.64	3.9220	3.9220	-0.6709	5.96	-0.03	-0.750			
0.1022	6538.38	3.9190	3.9190	-0.6852	5.96	-0.03	-0.750			
0.1042	6670.50	3.9160	3.9159	-0.6920	5.96	-0.03	-0.750			
0.1063	6806.37	3.9130	3.9130	-0.7039	5.97	-0.02	-0.750			
0.1085	6942.30	3.9100	3.9100	-0.7101	5.97	-0.02	-0.750			
0.1106	7081.08	3.9070	3.9070	-0.7174	5.97	-0.02	-0.750			
0.1128	7216.86	3.9040	3.9040	-0.7237	5.97	-0.02	-0.750			
0.1149	7356.00	3.9010	3.9010	-0.7330	5.97	-0.02	-0.750			
0.1171	7497.33	3.8980	3.8980	-0.7425	5.97	-0.02	-0.750			
0.1194	7642.86	3.8950	3.8948	-0.7464	5.97	-0.02	-0.750			
0.1217	7787.24	3.8920	3.8922	-0.7542	5.97	-0.02	-0.750			
0.1240	7932.91	3.8890	3.8890	-0.7602	5.98	-0.01	-0.750			
0.1263	8080.18	3.8860	3.8859	-0.7643	5.98	-0.01	-0.750			
0.1285	8226.36	3.8830	3.8829	-0.7665	5.99	-0.00	-0.750			
0.1308	8373.75	3.8800	3.8801	-0.7731	5.99	0.00	-0.750			
0.1332	8522.56	3.8770	3.8770	-0.7746	6.00	0.01	-0.750			
0.1355	8671.87	3.8740	3.8740	-0.7798	6.00	0.01	-0.750			
0.1378	8818.65	3.8710	3.8710	-0.7890	6.01	0.02	-0.750			
0.1402	8972.23	3.8680	3.8680	-0.7948	6.02	0.03	-0.750			
0.1426	9126.78	3.8650	3.8649	-0.8002	6.03	0.04	-0.750			
0.1450	9281.61	3.8620	3.8620	-0.8029	6.04	0.05	-0.750			
0.1475	9437.26	3.8590	3.8591	-0.8052	6.05	0.06	-0.750			
0.1499	9592.37	3.8560	3.8559	-0.8039	6.05	0.06	-0.750			
0.1523	9745.01	3.8530	3.8530	-0.8063	6.06	0.07	-0.750			
0.1547	9900.41	3.8500	3.8500	-0.8033	6.06	0.07	-0.750			
0.1571	10056.52	3.8470	3.8469	-0.8102	6.07	0.08	-0.750			
0.1596	10211.65	3.8440	3.8442	-0.8075	6.07	0.08	-0.750			
0.1620	10367.13	3.8410	3.8410	-0.8069	6.08	0.09	-0.750			
0.1644	10521.59	3.8380	3.8379	-0.8083	6.09	0.10	-0.750			
0.1668	10675.90	3.8350	3.8351	-0.8084	6.09	0.10	-0.750			
0.1692	10831.79	3.8320	3.8319	-0.8108	6.10	0.11	-0.750			
0.1717	10988.02	3.8290	3.8291	-0.8111	6.11	0.12	-0.750			
0.1741	11142.38	3.8260	3.8260	-0.8121	6.12	0.13	-0.750			
0.1766	11299.32	3.8230	3.8230	-0.8201	6.13	0.14	-0.750			
0.1790	11457.87	3.8200	3.8199	-0.8211	6.13	0.14	-0.750			
0.1815	11615.93	3.8170	3.8170	-0.8197	6.14	0.15	-0.750			
0.1840	11774.62	3.8140	3.8142	-0.8235	6.15	0.16	-0.750			
0.1865	11933.03	3.8110	3.8109	-0.8222	6.16	0.17	-0.750			
0.1889	12090.77	3.8080	3.8080	-0.8199	6.16	0.17	-0.750			
0.1913	12246.10	3.8050	3.8050	-0.8206	6.17	0.18	-0.750			
0.1938	12401.50	3.8020	3.8020	-0.8241	6.17	0.18	-0.750			
0.1963	12562.36	3.7990	3.7990	-0.8319	6.18	0.19	-0.750			
0.1988	12723.33	3.7960	3.7959	-0.8294	6.19	0.20	-0.750			
0.2013	12883.00	3.7930	3.7930	-0.8314	6.20	0.21	-0.750			
0.2038	13043.51	3.7900	3.7901	-0.8347	6.21	0.22	-0.750			
0.2063	13204.48	3.7870	3.7869	-0.8332	6.22	0.23	-0.750			
0.2088	13362.45	3.7840	3.7840	-0.8302	6.23	0.24	-0.750			
0.2113	13521.95	3.7810	3.7810	-0.8307	6.23	0.24	-0.750			
0.2138	13681.52	3.7780	3.7781	-0.8401	6.24	0.25	-0.750			
0.2163	13845.45	3.7750	3.7748	-0.8401	6.25	0.26	-0.750			
0.2188	14005.69	3.7720	3.7719	-0.8387	6.25	0.26	-0.750			
0.2214	14167.10	3.7690	3.7691	-0.8395	6.26	0.27	-0.750			
0.2239	14329.51	3.7660	3.7659	-0.8382	6.27	0.28	-0.750			
0.2264	14489.92	3.7630	3.7630	-0.8406	6.27	0.28	-0.750			
0.2289	14651.40	3.7600	3.7600	-0.8414	6.28	0.29	-0.750			
0.2314	14811.88	3.7570	3.7570	-0.8333	6.29	0.30	-0.750			
0.2340	14975.56	3.7540	3.7542	-0.8373	6.30	0.31	-0.750			
0.2365	15133.97	3.7510	3.7510	-0.8372	6.31	0.32	-0.750			
0.2390	15294.25	3.7480	3.7479	-0.8422	6.31	0.32	-0.750			
0.2415	15456.37	3.7450	3.7449	-0.8448	6.32	0.33	-0.750			
0.2440	15617.40	3.7420	3.7420	-0.8461	6.32	0.33	-0.750			
0.2466	15782.98	3.7390	3.7393	-0.8548	6.33	0.34	-0.750			
0.2492	15948.72	3.7360	3.7359	-0.8572	6.34	0.35	-0.750			
0.2518	16114.21	3.7330	3.7329	-0.8551	6.35	0.36	-0.750			
0.2543	16277.41	3.7300	3.7300	-0.8529	6.35	0.36	-0.750			
0.2569	16442.09	3.7270	3.7270	-0.8564	6.36	0.37	-0.750			
0.2595	16604.92	3.7240	3.7241	-0.8553	6.37	0.38	-0.750			
0.2620	16768.49	3.7210	3.7210	-0.8603	6.38	0.39	-0.750			
0.2646	16932.26	3.7180	3.7179	-0.8633	6.39	0.40	-0.750			
0.2672	17098.34	3.7150	3.7150	-0.8685	6.40	0.41	-0.750			
0.2698	17266.98	3.7120	3.7119	-0.8768	6.40	0.41	-0.750			
0.2724	17434.53	3.7090	3.7092	-0.8791	6.41	0.42	-0.750			
0.2751	17604.12	3.7060	3.7059	-0.8877	6.42	0.43	-0.750			
0.2777	17775.02	3.7030	3.7030	-0.8916	6.42	0.43	-0.750			
0.2804	17947.02	3.7000	3.6999	-0.8940	6.42	0.43	-0.750			
0.2831	18119.52	3.6970	3.6970	-0.9030	6.43	0.44	-0.750			
0.2858	18294.03	3.6940	3.6940	-0.9069	6.43	0.44	-0.750			
0.2886	18467.66	3.6910	3.6910	-0.9203	6.44	0.45	-0.750			
0.2913	18646.04	3.6880	3.6879	-0.9240	6.45	0.46	-0.750			
0.2941	18823.54	3.6850	3.6850	-0.9295	6.46	0.47	-0.750			
0.2969	19003.05	3.6820	3.6823	-0.9390	6.47	0.48	-0.750			
0.2998	19184.26	3.6790	3.6790	-0.9522	6.47	0.48	-0.750			
0.3026	19368.07	3.6760	3.6759	-0.9555	6.48	0.49	-0.750			
0.3055	19550.26	3.6730	3.6729	-0.9669	6.48	0.49	-0.750			
0.3084	19737.10	3.6700	3.6701	-0.9824	6.49	0.50	-0.750			
0.3114	19927.42	3.6670	3.6670	-1.0002	6.49	0.50	-0.750			
0.3144	20121.60	3.6640	3.6639	-1.0104	6.50	0.51	-0.750			
0.3174	20316.57	3.6610	3.6610	-1.0230	6.50	0.51	-0.750			
0.3205	20513.43	3.6580	3.6580	-1.0314	6.51	0.52	-0.750			
0.3237	20715.16	3.6550	3.6549	-1.0528	6.51	0.52	-0.750			
0.3268	20916.74	3.6520	3.6520	-1.0580	6.52	0.53	-0.750			
0.3300	21120.20	3.6490	3.6490	-1.0687	6.52	0.53	-0.750			
0.3332	21324.94	3.6460	3.6460	-1.0850	6.53	0.54	-0.750			
0.3365	21536.61	3.6430	3.6430	-1.1092	6.53	0.54	-0.750			
0.3399	21751.12	3.6400	3.6400	-1.1232	6.54	0.55	-0.750			
0.3433	21969.19	3.6370	3.6369	-1.1430	6.54	0.55	-0.750			
0.3467	22189.83	3.6340	3.6341	-1.1561	6.55	0.56	-0.750			
0.3503	22416.06	3.6310	3.6310	-1.1757	6.56	0.57	-0.750			
0.3538	22642.91	3.6280	3.6280	-1.1855	6.57	0.58	-0.750			
0.3573	22869.43	3.6250	3.6250	-1.1974	6.58	0.59	-0.750			
0.3609	23100.78	3.6220	3.6220	-1.2180	6.58	0.59	-0.750			
0.3646	23332.95	3.6190	3.6190	-1.2548	6.58	0.59	-0.750			
0.3684	23575.23	3.6160	3.6159	-1.2805	6.59	0.60	-0.750			
0.3723	23825.97	3.6130	3.6130	-1.3157	6.59	0.60	-0.750			
0.3764	24086.52	3.6100	3.6100	-1.3418	6.60	0.61	-0.750			
0.3805	24351.49	3.6070	3.6071	-1.3596	6.60	0.61	-0.750			
0.3846	24614.76	3.6040	3.6041	-1.3623	6.61	0.62	-0.750			
0.3887	24874.70	3.6010	3.6011	-1.3690	6.62	0.63	-0.750	0.489	1.169	
0.3927	25134.49	3.5980	3.5979	-1.3710	6.62	0.63	-0.750			
0.3968	25396.95	3.5950	3.5952	-1.3976	6.63	0.64	-0.750			
0.4010	25663.36	3.5920	3.5920	-1.4259	6.64	0.65	-0.750			
0.4053	25941.52	3.5890	3.5889	-1.4571	6.64	0.65	-0.750			
0.4098	26227.87	3.5860	3.5861	-1.4862	6.65	0.66	-0.750			
0.4144	26519.59	3.5830	3.5828	-1.5062	6.65	0.66	-0.750			
0.4189	26809.84	3.5800	3.5801	-1.5206	6.65	0.66	-0.750			
0.4235	27101.90	3.5770	3.5770	-1.5412	6.65	0.66	-0.750			
0.4281	27398.06	3.5740	3.5740	-1.5549	6.66	0.67	-0.750			
0.4328	27697.37	3.5710	3.5709	-1.5740	6.67	0.68	-0.750			
0.4375	28000.85	3.5680	3.5679	-1.5883	6.68	0.69	-0.750			
0.4424	28311.05	3.5650	3.5649	-1.6215	6.68	0.69	-0.750			
0.4473	28625.55	3.5620	3.5621	-1.6302	6.69	0.70	-0.750			
0.4521	28936.24	3.5590	3.5591	-1.6423	6.70	0.71	-0.750			
0.4571	29253.69	3.5560	3.5560	-1.6486	6.71	0.72	-0.750			
0.4621	29576.07	3.5530	3.5527	-1.6598	6.71	0.72	-0.750			
0.4671	29891.98	3.5500	3.5500	-1.6749	6.72	0.73	-0.750			
0.4721	30212.66	3.5470	3.5471	-1.6927	6.73	0.74	-0.750			
0.4772	30538.79	3.5440	3.5441	-1.7122	6.73	0.74	-0.750			
0.4823	30869.16	3.5410	3.5409	-1.7249	6.73	0.74	-0.750			
0.4876	31204.69	3.5380	3.5380	-1.7492	6.74	0.75	-0.750			
0.4931	31561.48	3.5350	3.5349	-1.7258	6.74	0.75	-0.750			
0.4983	31888.06	3.5320	3.5319	-1.6923	6.75	0.76	-0.750			
0.5032	32207.89	3.5290	3.5294	-1.6709	6.76	0.77	-0.750			
0.5081	32517.86	3.5260	3.5261	-1.6481	6.76	0.77	-0.750			
0.5129	32824.70	3.5230	3.5226	-1.6821	6.76	0.77	-0.750			
0.5179	33144.27	3.5200	3.5198	-1.7034	6.77	0.78	-0.750			
0.5231	33477.95	3.5170	3.5171	-1.7506	6.77	0.78	-0.750			
0.5286	33829.26	3.5140	3.5141	-1.7828	6.77	0.78	-0.750			
0.5340	34176.05	3.5110	3.5112	-1.7821	6.77	0.78	-0.750			
0.5393	34518.08	3.5080	3.5078	-1.7865	6.77	0.78	-0.750			
0.5447	34860.02	3.5050	3.5051	-1.7765	6.77	0.78	-0.750			
0.5500	35200.43	3.5020	3.5022	-1.7823	6.78	0.79	-0.750			
0.5555	35551.20	3.4990	3.4990	-1.7845	6.78	0.79	-0.750			
0.5608	35889.65	3.4960	3.4961	-1.7652	6.79	0.80	-0.750			
0.5661	36231.06	3.4930	3.4930	-1.7586	6.80	0.81	-0.750			
0.5714	36568.15	3.4900	3.4898	-1.7489	6.81	0.82	-0.750			
0.5766	36901.09	3.4870	3.4871	-1.7281	6.82	0.83	-0.750			
0.5817	37231.66	3.4840	3.4839	-1.7098	6.83	0.84	-0.750			
0.5868	37554.33	3.4810	3.4809	-1.6856	6.83	0.84	-0.750			
0.5919	37880.31	3.4780	3.4780	-1.6709	6.84	0.85	-0.750			
0.5969	38200.41	3.4750	3.4752	-1.6538	6.85	0.86	-0.750			
0.6017	38511.45	3.4720	3.4719	-1.6365	6.87	0.88	-0.750			
0.6067	38827.74	3.4690	3.4691	-1.6068	6.88	0.89	-0.750			
0.6115	39135.75	3.4660	3.4660	-1.5983	6.90	0.91	-0.750			
0.6163	39443.07	3.4630	3.4629	-1.5682	6.91	0.92	-0.750			
0.6210	39740.82	3.4600	3.4598	-1.5437	6.92	0.93	-0.750			
0.6255	40033.50	3.4570	3.4570	-1.5107	6.93	0.94	-0.750			
0.6300	40322.37	3.4540	3.4538	-1.4868	6.95	0.96	-0.750			
0.6344	40602.57	3.4510	3.4512	-1.4546	6.97	0.98	-0.750			
0.6388	40880.57	3.4480	3.4480	-1.4232	6.98	0.99	-0.750			
0.6430	41148.94	3.4450	3.4450	-1.3870	7.00	1.01	-0.750			
0.6472	41418.29	3.4420	3.4421	-1.3771	7.01	1.02	-0.750			
0.6513	41680.42	3.4390	3.4390	-1.3440	7.03	1.04	-0.750			
0.6553	41936.37	3.4360	3.4359	-1.3088	7.05	1.06	-0.750			
0.6591	42182.17	3.4330	3.4332	-1.2822	7.07	1.08	-0.750			
0.6629	42426.50	3.4300	3.4300	-1.2541	7.08	1.09	-0.750			
0.6666	42665.11	3.4270	3.4270	-1.2197	7.10	1.11	-0.750			
0.6702	42895.15	3.4240	3.4239	-1.1889	7.11	1.12	-0.750			
0.6737	43119.89	3.4210	3.4210	-1.1618	7.13	1.14	-0.750			
0.6772	43341.74	3.4180	3.4180	-1.1371	7.14	1.15	-0.750			
0.6806	43557.10	3.4150	3.4149	-1.1036	7.16	1.17	-0.750			
0.6838	43764.03	3.4120	3.4121	-1.0710	7.17	1.18	-0.750			
0.6870	43969.44	3.4090	3.4090	-1.0456	7.18	1.19	-0.750			
0.6901	44168.31	3.4060	3.4060	-1.0176	7.20	1.21	-0.750			
0.6931	44359.00	3.4030	3.4029	-0.9861	7.21	1.22	-0.750			
0.6960	44544.46	3.4000	3.4000	-0.9563	7.23	1.24	-0.750			
0.6988	44724.50	3.3970	3.3970	-0.9331	7.24	1.25	-0.750			
0.7016	44902.33	3.3940	3.3940	-0.9069	7.25	1.26	-0.750			
0.7043	45073.24	3.3910	3.3910	-0.8806	7.27	1.28	-0.750			
0.7069	45240.23	3.3880	3.3880	-0.8573	7.28	1.29	-0.750			
0.7094	45403.03	3.3850	3.3852	-0.8298	7.29	1.30	-0.750			
0.7119	45559.29	3.3820	3.3820	-0.7932	7.30	1.31	-0.750			
