Ah_balance (normalized)	Ah_balance (mAh)	Voltage - fit (V)	Voltage -  interpolate (V)	dQ/dV (1/V)	Temperature (°C)	Temperature - diff (°C)	Current (C)	R_DC 0ms (mOhm)	R_DC 50ms (mOhm)	R_DC 50 ms PEC (mOhm)
0.1793	11475.89	4.0810	4.0810	0.7828	7.22	1.23	0.750			
0.1817	11626.09	4.0780	4.0780	0.7838	7.22	1.23	0.750			
0.1840	11778.28	4.0750	4.0750	0.7871	7.21	1.22	0.750			
0.1864	11929.09	4.0720	4.0719	0.7857	7.21	1.22	0.750			
0.1888	12080.90	4.0690	4.0690	0.7817	7.21	1.22	0.750			
0.1911	12231.33	4.0660	4.0660	0.7746	7.20	1.21	0.750			
0.1934	12377.71	4.0630	4.0630	0.7763	7.20	1.21	0.750			
0.1957	12525.07	4.0600	4.0601	0.7806	7.20	1.21	0.750			
0.1980	12673.82	4.0570	4.0569	0.7841	7.19	1.20	0.750			
0.2004	12825.28	4.0540	4.0540	0.7927	7.19	1.20	0.750			
0.2028	12981.35	4.0510	4.0510	0.7920	7.18	1.19	0.750			
0.2052	13132.83	4.0480	4.0480	0.8015	7.18	1.19	0.750			
0.2076	13287.55	4.0450	4.0450	0.8081	7.18	1.19	0.750			
0.2100	13441.45	4.0420	4.0421	0.8103	7.17	1.18	0.750			
0.2125	13597.25	4.0390	4.0388	0.8108	7.17	1.18	0.750			
0.2150	13756.84	4.0360	4.0361	0.8053	7.16	1.17	0.750			
0.2174	13911.20	4.0330	4.0331	0.8126	7.16	1.17	0.750			
0.2198	14066.91	4.0300	4.0301	0.8163	7.16	1.17	0.750			
0.2222	14221.21	4.0270	4.0270	0.8199	7.15	1.16	0.750			
0.2247	14377.62	4.0240	4.0239	0.8252	7.15	1.16	0.750			
0.2272	14539.52	4.0210	4.0210	0.8269	7.14	1.15	0.750			
0.2297	14700.53	4.0180	4.0181	0.8388	7.14	1.15	0.750			
0.2322	14862.12	4.0150	4.0151	0.8407	7.14	1.15	0.750			
0.2347	15022.45	4.0120	4.0120	0.8358	7.13	1.14	0.750			
0.2372	15183.17	4.0090	4.0089	0.8374	7.13	1.14	0.750			
0.2398	15345.13	4.0060	4.0061	0.8352	7.13	1.14	0.750			
0.2423	15505.91	4.0030	4.0031	0.8418	7.13	1.14	0.750			
0.2448	15667.63	4.0000	4.0000	0.8440	7.13	1.14	0.750			
0.2473	15828.28	3.9970	3.9970	0.8436	7.13	1.14	0.750			
0.2498	15989.72	3.9940	3.9941	0.8497	7.13	1.14	0.750			
0.2524	16154.66	3.9910	3.9910	0.8528	7.12	1.13	0.750			
0.2550	16319.73	3.9880	3.9880	0.8597	7.12	1.13	0.750			
0.2576	16485.02	3.9850	3.9851	0.8669	7.12	1.13	0.750			
0.2602	16651.33	3.9820	3.9820	0.8671	7.11	1.12	0.750			
0.2628	16819.38	3.9790	3.9790	0.8707	7.11	1.12	0.750			
0.2654	16987.05	3.9760	3.9761	0.8678	7.10	1.11	0.750			
0.2680	17152.35	3.9730	3.9731	0.8746	7.09	1.10	0.750			
0.2706	17321.35	3.9700	3.9699	0.8810	7.09	1.10	0.750			
0.2733	17489.32	3.9670	3.9668	0.8817	7.08	1.09	0.750			
0.2759	17658.50	3.9640	3.9641	0.8874	7.08	1.09	0.750			
0.2786	17831.70	3.9610	3.9611	0.8867	7.08	1.09	0.750			
0.2813	18000.24	3.9580	3.9579	0.8967	7.07	1.08	0.750			
0.2840	18173.20	3.9550	3.9551	0.9003	7.07	1.08	0.750			
0.2866	18344.79	3.9520	3.9517	0.9021	7.07	1.08	0.750			
0.2894	18519.88	3.9490	3.9490	0.9050	7.07	1.08	0.750			
0.2921	18694.38	3.9460	3.9462	0.9143	7.06	1.07	0.750			
0.2949	18870.44	3.9430	3.9430	0.9228	7.06	1.07	0.750			
0.2976	19047.26	3.9400	3.9400	0.9257	7.05	1.06	0.750			
0.3004	19226.06	3.9370	3.9371	0.9272	7.05	1.06	0.750			
0.3032	19405.42	3.9340	3.9340	0.9392	7.04	1.05	0.750			
0.3060	19584.01	3.9310	3.9311	0.9520	7.03	1.04	0.750			
0.3089	19769.24	3.9280	3.9280	0.9605	7.03	1.04	0.750			
0.3118	19953.87	3.9250	3.9249	0.9652	7.02	1.03	0.750			
0.3147	20141.05	3.9220	3.9220	0.9673	7.01	1.02	0.750			
0.3176	20328.33	3.9190	3.9191	0.9750	7.01	1.02	0.750			
0.3205	20515.09	3.9160	3.9160	0.9835	7.00	1.01	0.750			
0.3235	20702.32	3.9130	3.9128	0.9865	6.99	1.00	0.750			
0.3264	20888.80	3.9100	3.9100	0.9908	6.99	1.00	0.750			
0.3294	21082.31	3.9070	3.9070	1.0113	6.98	0.99	0.750			
0.3325	21279.70	3.9040	3.9041	1.0238	6.98	0.99	0.750			
0.3356	21479.05	3.9010	3.9009	1.0324	6.97	0.98	0.750			
0.3387	21678.76	3.8980	3.8980	1.0322	6.96	0.97	0.750			
0.3418	21875.59	3.8950	3.8951	1.0417	6.95	0.96	0.750			
0.3449	22073.79	3.8920	3.8921	1.0535	6.94	0.95	0.750			
0.3481	22276.38	3.8890	3.8888	1.0684	6.93	0.94	0.750			
0.3513	22484.38	3.8860	3.8860	1.0658	6.93	0.94	0.750			
0.3545	22687.26	3.8830	3.8831	1.0937	6.92	0.93	0.750			
0.3578	22898.99	3.8800	3.8801	1.1110	6.92	0.93	0.750			
0.3612	23116.53	3.8770	3.8764	1.1245	6.91	0.92	0.750			
0.3645	23330.69	3.8740	3.8742	1.1400	6.90	0.91	0.750			
0.3680	23551.78	3.8710	3.8712	1.1592	6.89	0.90	0.750			
0.3716	23779.58	3.8680	3.8680	1.1805	6.88	0.89	0.750			
0.3751	24006.41	3.8650	3.8651	1.1827	6.87	0.88	0.750			
0.3786	24233.17	3.8620	3.8620	1.2028	6.86	0.87	0.750			
0.3823	24466.88	3.8590	3.8591	1.2316	6.85	0.86	0.750			
0.3860	24705.97	3.8560	3.8559	1.2509	6.84	0.85	0.750			
0.3898	24945.98	3.8530	3.8530	1.2602	6.83	0.84	0.750			
0.3936	25190.07	3.8500	3.8501	1.2837	6.82	0.83	0.750			
0.3975	25440.43	3.8470	3.8471	1.2968	6.80	0.81	0.750			
0.4014	25686.84	3.8440	3.8442	1.3458	6.79	0.80	0.750			
0.4054	25945.00	3.8410	3.8410	1.3766	6.78	0.79	0.750			
0.4096	26216.47	3.8380	3.8381	1.4063	6.77	0.78	0.750	0.409	0.967	
0.4140	26499.11	3.8350	3.8352	1.4302	6.75	0.76	0.750			
0.4183	26772.73	3.8320	3.8322	1.4620	6.73	0.74	0.750			
0.4228	27057.07	3.8290	3.8289	1.4649	6.71	0.72	0.750			
0.4271	27335.89	3.8260	3.8258	1.4697	6.70	0.71	0.750			
0.4315	27617.09	3.8230	3.8233	1.5143	6.69	0.70	0.750			
0.4362	27914.32	3.8200	3.8198	1.5440	6.67	0.68	0.750			
0.4409	28216.61	3.8170	3.8173	1.5777	6.65	0.66	0.750			
0.4457	28523.13	3.8140	3.8142	1.5964	6.63	0.64	0.750			
0.4506	28837.08	3.8110	3.8108	1.6437	6.61	0.62	0.750			
0.4554	29147.01	3.8080	3.8079	1.6719	6.60	0.61	0.750			
0.4605	29474.45	3.8050	3.8049	1.6947	6.58	0.59	0.750			
0.4657	29806.22	3.8020	3.8022	1.7569	6.57	0.58	0.750			
0.4711	30148.05	3.7990	3.7992	1.7819	6.56	0.57	0.750			
0.4765	30493.05	3.7960	3.7960	1.8039	6.54	0.55	0.750			
0.4818	30835.05	3.7930	3.7931	1.8605	6.52	0.53	0.750			
0.4874	31193.81	3.7900	3.7902	1.8931	6.50	0.51	0.750			
0.4933	31570.80	3.7870	3.7870	1.9309	6.47	0.48	0.750			
0.4992	31949.41	3.7840	3.7839	1.9738	6.45	0.46	0.750			
0.5051	32325.63	3.7810	3.7811	1.9827	6.44	0.45	0.750			
0.5109	32697.34	3.7780	3.7780	1.9916	6.42	0.43	0.750			
0.5170	33089.94	3.7750	3.7749	2.0208	6.40	0.41	0.750			
0.5232	33483.24	3.7720	3.7720	2.0630	6.37	0.38	0.750			
0.5294	33878.54	3.7690	3.7690	2.0814	6.35	0.36	0.750			
0.5357	34281.78	3.7660	3.7660	2.1072	6.33	0.34	0.750			
0.5421	34695.32	3.7630	3.7630	2.1609	6.31	0.32	0.750			
0.5487	35118.52	3.7600	3.7598	2.1683	6.29	0.30	0.750			
0.5551	35528.50	3.7570	3.7575	2.2126	6.26	0.27	0.750			
0.5618	35957.72	3.7540	3.7538	2.2271	6.23	0.24	0.750			
0.5684	36376.20	3.7510	3.7512	2.3107	6.21	0.22	0.750			
0.5756	36837.17	3.7480	3.7478	2.3291	6.19	0.20	0.750			
0.5825	37277.68	3.7450	3.7453	2.3652	6.17	0.18	0.750			
0.5898	37747.07	3.7420	3.7419	2.4074	6.14	0.15	0.750			
0.5968	38197.09	3.7390	3.7391	2.5164	6.12	0.13	0.750			
0.6046	38693.93	3.7360	3.7358	2.6423	6.10	0.11	0.750			
0.6127	39215.89	3.7330	3.7331	2.7288	6.09	0.10	0.750			
0.6212	39754.62	3.7300	3.7301	2.7687	6.06	0.07	0.750			
0.6294	40281.03	3.7270	3.7270	2.7605	6.03	0.04	0.750			
0.6377	40815.50	3.7240	3.7240	2.6708	6.01	0.02	0.750			
0.6458	41333.48	3.7210	3.7212	2.6075	5.99	0.00	0.750			
0.6533	41813.69	3.7180	3.7179	2.5062	5.98	-0.01	0.750			
0.6607	42286.45	3.7150	3.7149	2.2896	5.97	-0.02	0.750			
0.6676	42726.35	3.7120	3.7123	2.1614	5.96	-0.03	0.750			
0.6737	43117.30	3.7090	3.7089	1.9219	5.95	-0.04	0.750			
0.6790	43456.39	3.7060	3.7064	1.6741	5.95	-0.04	0.750			
0.6837	43754.79	3.7030	3.7031	1.4733	5.95	-0.04	0.750			
0.6877	44015.36	3.7000	3.7001	1.3050	5.95	-0.04	0.750			
0.6911	44232.74	3.6970	3.6970	1.1467	5.95	-0.04	0.750			
0.6943	44433.50	3.6940	3.6939	1.0399	5.95	-0.04	0.750			
0.6971	44615.18	3.6910	3.6912	0.9641	5.95	-0.04	0.750			
0.6999	44790.75	3.6880	3.6878	0.8973	5.95	-0.04	0.750			
0.7025	44957.71	3.6850	3.6850	0.8486	5.96	-0.03	0.750			
0.7049	45116.47	3.6820	3.6820	0.8033	5.96	-0.03	0.750			
0.7073	45266.73	3.6790	3.6791	0.7603	5.96	-0.03	0.750			
0.7095	45408.89	3.6760	3.6760	0.7129	5.97	-0.02	0.750			
0.7116	45542.06	3.6730	3.6730	0.6688	5.97	-0.02	0.750			
0.7135	45666.42	3.6700	3.6700	0.6212	5.97	-0.02	0.750			
0.7153	45782.22	3.6670	3.6671	0.5778	5.98	-0.01	0.750			
0.7170	45888.19	3.6640	3.6640	0.5310	5.98	-0.01	0.750			
0.7185	45985.64	3.6610	3.6610	0.4864	5.98	-0.01	0.750			
0.7199	46073.64	3.6580	3.6579	0.4403	5.98	-0.01	0.750			
0.7211	46153.48	3.6550	3.6551	0.3993	5.99	-0.00	0.750			
0.7223	46226.11	3.6520	3.6520	0.3605	5.99	-0.00	0.750			
0.7233	46291.35	3.6490	3.6491	0.3239	5.99	-0.00	0.750			
0.7242	46348.99	3.6460	3.6461	0.2872	5.99	0.00	0.750			
0.7250	46401.59	3.6430	3.6429	0.2497	5.99	0.00	0.750			
0.7257	46446.47	3.6400	3.6400	0.2138	5.99	0.00	0.750			
0.7263	46484.68	3.6370	3.6371	0.1776	5.99	0.00	0.750			
0.7268	46516.04	3.6340	3.6342	0.1390	5.99	0.00	0.750			
0.7272	46540.08	3.6310	3.6316	0.0986	6.00	0.01	0.750			
0.7274	46555.31	3.6280	3.6288	0.0549	6.00	0.01	0.750			
0.7275	46561.66	3.6250	3.6271	0.0112	6.00	0.01	0.750			
