Ah_balance (normalized)	Ah_balance (mAh)	Voltage - fit (V)	Voltage -  interpolate (V)	dQ/dV (1/V)	Temperature (°C)	Temperature - diff (°C)	Current (C)	R_DC 0ms (mOhm)	R_DC 50ms (mOhm)	R_DC 50 ms PEC (mOhm)
0.0939	6012.20	4.0070	4.0069	-0.0709	6.00	0.01	-0.750			
0.0942	6028.60	4.0040	4.0039	-0.0999	6.00	0.01	-0.750			
0.0946	6051.40	4.0010	4.0007	-0.1285	6.00	0.01	-0.750			
0.0950	6079.26	3.9980	3.9980	-0.1530	6.00	0.01	-0.750			
0.0955	6110.66	3.9950	3.9951	-0.1781	6.00	0.01	-0.750			
0.0961	6147.29	3.9920	3.9921	-0.2025	6.00	0.01	-0.750			
0.0967	6189.32	3.9890	3.9890	-0.2263	5.99	0.00	-0.750			
0.0974	6234.75	3.9860	3.9859	-0.2489	5.99	0.00	-0.750			
0.0982	6284.84	3.9830	3.9831	-0.2718	5.99	-0.00	-0.750			
0.0990	6339.18	3.9800	3.9801	-0.2953	5.99	-0.00	-0.750			
0.1000	6398.38	3.9770	3.9770	-0.3185	5.98	-0.01	-0.750			
0.1010	6461.16	3.9740	3.9740	-0.3419	5.98	-0.01	-0.750			
0.1020	6529.13	3.9710	3.9710	-0.3673	5.98	-0.01	-0.750			
0.1032	6601.88	3.9680	3.9680	-0.3938	5.97	-0.02	-0.750			
0.1044	6680.09	3.9650	3.9650	-0.4177	5.97	-0.02	-0.750			
0.1057	6763.07	3.9620	3.9620	-0.4426	5.97	-0.02	-0.750			
0.1070	6850.82	3.9590	3.9590	-0.4664	5.96	-0.03	-0.750			
0.1085	6942.75	3.9560	3.9559	-0.4886	5.96	-0.03	-0.750			
0.1100	7038.84	3.9530	3.9531	-0.5101	5.95	-0.04	-0.750			
0.1116	7139.68	3.9500	3.9499	-0.5279	5.95	-0.04	-0.750			
0.1132	7242.75	3.9470	3.9469	-0.5470	5.95	-0.04	-0.750			
0.1148	7350.39	3.9440	3.9441	-0.5630	5.94	-0.05	-0.750			
0.1165	7458.60	3.9410	3.9411	-0.5861	5.94	-0.05	-0.750			
0.1183	7574.38	3.9380	3.9379	-0.6042	5.94	-0.05	-0.750			
0.1202	7692.61	3.9350	3.9349	-0.6209	5.93	-0.06	-0.750			
0.1221	7814.83	3.9320	3.9319	-0.6332	5.93	-0.06	-0.750			
0.1240	7938.81	3.9290	3.9291	-0.6423	5.93	-0.06	-0.750			
0.1260	8062.85	3.9260	3.9260	-0.6513	5.93	-0.06	-0.750			
0.1279	8188.43	3.9230	3.9231	-0.6585	5.93	-0.06	-0.750			
0.1299	8314.28	3.9200	3.9199	-0.6691	5.93	-0.06	-0.750			
0.1320	8445.91	3.9170	3.9169	-0.6858	5.93	-0.06	-0.750			
0.1341	8579.51	3.9140	3.9139	-0.6954	5.93	-0.06	-0.750			
0.1362	8714.61	3.9110	3.9111	-0.7053	5.93	-0.06	-0.750			
0.1383	8853.21	3.9080	3.9079	-0.7082	5.93	-0.06	-0.750			
0.1404	8987.83	3.9050	3.9050	-0.7144	5.93	-0.06	-0.750			
0.1425	9122.99	3.9020	3.9021	-0.7108	5.94	-0.05	-0.750			
0.1447	9263.32	3.8990	3.8990	-0.7253	5.94	-0.05	-0.750			
0.1469	9401.86	3.8960	3.8959	-0.7272	5.94	-0.05	-0.750			
0.1491	9543.05	3.8930	3.8929	-0.7280	5.94	-0.05	-0.750			
0.1513	9683.04	3.8900	3.8900	-0.7343	5.94	-0.05	-0.750			
0.1535	9824.78	3.8870	3.8870	-0.7453	5.94	-0.05	-0.750			
0.1558	9968.05	3.8840	3.8839	-0.7429	5.95	-0.04	-0.750			
0.1580	10113.36	3.8810	3.8809	-0.7478	5.95	-0.04	-0.750			
0.1603	10257.36	3.8780	3.8783	-0.7448	5.95	-0.04	-0.750			
0.1625	10400.61	3.8750	3.8750	-0.7499	5.95	-0.04	-0.750			
0.1648	10545.23	3.8720	3.8720	-0.7526	5.96	-0.03	-0.750			
0.1670	10689.04	3.8690	3.8688	-0.7533	5.96	-0.03	-0.750			
0.1693	10833.97	3.8660	3.8661	-0.7593	5.96	-0.03	-0.750			
0.1716	10980.83	3.8630	3.8630	-0.7613	5.97	-0.02	-0.750			
0.1739	11126.75	3.8600	3.8599	-0.7638	5.97	-0.02	-0.750			
0.1761	11272.93	3.8570	3.8570	-0.7665	5.98	-0.01	-0.750			
0.1784	11418.82	3.8540	3.8540	-0.7653	5.98	-0.01	-0.750			
0.1807	11564.95	3.8510	3.8510	-0.7644	5.99	-0.00	-0.750			
0.1831	11715.94	3.8480	3.8478	-0.7734	5.99	0.00	-0.750			
0.1854	11862.99	3.8450	3.8454	-0.7734	6.00	0.01	-0.750			
0.1877	12012.26	3.8420	3.8419	-0.7751	6.00	0.01	-0.750			
0.1900	12160.76	3.8390	3.8390	-0.7768	6.00	0.01	-0.750			
0.1924	12311.54	3.8360	3.8360	-0.7774	6.01	0.02	-0.750			
0.1947	12460.62	3.8330	3.8330	-0.7795	6.01	0.02	-0.750			
0.1970	12609.60	3.8300	3.8300	-0.7814	6.01	0.02	-0.750			
0.1994	12759.47	3.8270	3.8269	-0.7831	6.01	0.02	-0.750			
0.2017	12909.18	3.8240	3.8239	-0.7831	6.02	0.03	-0.750			
0.2041	13059.84	3.8210	3.8210	-0.7843	6.02	0.03	-0.750			
0.2064	13210.10	3.8180	3.8180	-0.7856	6.02	0.03	-0.750			
0.2088	13364.21	3.8150	3.8148	-0.7843	6.03	0.04	-0.750			
0.2112	13513.70	3.8120	3.8122	-0.7766	6.03	0.04	-0.750			
0.2134	13660.75	3.8090	3.8091	-0.7770	6.04	0.05	-0.750			
0.2158	13809.24	3.8060	3.8060	-0.7768	6.05	0.06	-0.750			
0.2181	13955.94	3.8030	3.8030	-0.7773	6.05	0.06	-0.750			
0.2204	14106.20	3.8000	3.7999	-0.7868	6.06	0.07	-0.750			
0.2228	14260.12	3.7970	3.7971	-0.7872	6.07	0.08	-0.750			
0.2252	14413.62	3.7940	3.7940	-0.7899	6.07	0.08	-0.750			
0.2276	14565.66	3.7910	3.7911	-0.7913	6.08	0.09	-0.750			
0.2300	14717.07	3.7880	3.7880	-0.7852	6.08	0.09	-0.750			
0.2323	14865.09	3.7850	3.7849	-0.7886	6.08	0.09	-0.750			
0.2346	15016.19	3.7820	3.7819	-0.7890	6.09	0.10	-0.750			
0.2370	15168.41	3.7790	3.7789	-0.7923	6.09	0.10	-0.750			
0.2394	15321.51	3.7760	3.7761	-0.8018	6.10	0.11	-0.750			
0.2418	15476.41	3.7730	3.7730	-0.7974	6.10	0.11	-0.750			
0.2442	15628.83	3.7700	3.7700	-0.7973	6.10	0.11	-0.750			
0.2466	15783.67	3.7670	3.7669	-0.7976	6.11	0.12	-0.750			
0.2490	15935.37	3.7640	3.7639	-0.7912	6.11	0.12	-0.750			
0.2514	16087.22	3.7610	3.7610	-0.7965	6.12	0.13	-0.750			
0.2537	16238.82	3.7580	3.7581	-0.7997	6.12	0.13	-0.750			
0.2561	16391.64	3.7550	3.7549	-0.7991	6.12	0.13	-0.750			
0.2586	16547.49	3.7520	3.7519	-0.8061	6.13	0.14	-0.750			
0.2610	16701.83	3.7490	3.7491	-0.8049	6.13	0.14	-0.750			
0.2634	16857.31	3.7460	3.7460	-0.8080	6.14	0.15	-0.750			
0.2658	17014.01	3.7430	3.7430	-0.8142	6.15	0.16	-0.750			
0.2683	17169.33	3.7400	3.7399	-0.8126	6.16	0.17	-0.750			
0.2707	17325.30	3.7370	3.7370	-0.8118	6.16	0.17	-0.750			
0.2732	17481.97	3.7340	3.7342	-0.8161	6.17	0.18	-0.750			
0.2756	17639.29	3.7310	3.7308	-0.8145	6.17	0.18	-0.750			
0.2780	17795.05	3.7280	3.7281	-0.8225	6.18	0.19	-0.750			
0.2805	17952.22	3.7250	3.7250	-0.8223	6.18	0.19	-0.750			
0.2830	18111.40	3.7220	3.7219	-0.8312	6.19	0.20	-0.750			
0.2855	18270.98	3.7190	3.7193	-0.8376	6.19	0.20	-0.750			
0.2880	18431.68	3.7160	3.7160	-0.8450	6.19	0.20	-0.750			
0.2905	18594.97	3.7130	3.7129	-0.8505	6.20	0.21	-0.750			
0.2931	18760.21	3.7100	3.7100	-0.8560	6.20	0.21	-0.750			
0.2957	18925.82	3.7070	3.7070	-0.8603	6.21	0.22	-0.750			
0.2983	19090.81	3.7040	3.7042	-0.8676	6.21	0.22	-0.750			
0.3009	19255.57	3.7010	3.7010	-0.8736	6.21	0.22	-0.750			
0.3035	19423.89	3.6980	3.6979	-0.8798	6.22	0.23	-0.750			
0.3061	19592.44	3.6950	3.6950	-0.8873	6.22	0.23	-0.750			
0.3089	19766.49	3.6920	3.6920	-0.9037	6.23	0.24	-0.750			
0.3116	19939.21	3.6890	3.6891	-0.9119	6.23	0.24	-0.750			
0.3143	20118.06	3.6860	3.6859	-0.9272	6.23	0.24	-0.750			
0.3171	20297.41	3.6830	3.6829	-0.9299	6.24	0.25	-0.750			
0.3199	20476.66	3.6800	3.6799	-0.9359	6.24	0.25	-0.750			
0.3228	20657.01	3.6770	3.6775	-0.9466	6.24	0.25	-0.750			
0.3256	20838.29	3.6740	3.6739	-0.9583	6.25	0.26	-0.750			
0.3285	21022.50	3.6710	3.6709	-0.9671	6.25	0.26	-0.750			
0.3314	21207.98	3.6680	3.6679	-0.9707	6.26	0.27	-0.750			
0.3344	21400.71	3.6650	3.6651	-0.9927	6.27	0.28	-0.750			
0.3373	21589.31	3.6620	3.6620	-1.0030	6.27	0.28	-0.750			
0.3404	21783.01	3.6590	3.6589	-1.0089	6.27	0.28	-0.750			
0.3434	21976.73	3.6560	3.6559	-1.0169	6.27	0.28	-0.750			
0.3464	22170.38	3.6530	3.6529	-1.0217	6.27	0.28	-0.750			
0.3495	22369.59	3.6500	3.6500	-1.0443	6.27	0.28	-0.750			
0.3527	22571.64	3.6470	3.6470	-1.0589	6.28	0.29	-0.750			
0.3559	22775.89	3.6440	3.6438	-1.0673	6.28	0.29	-0.750			
0.3591	22979.71	3.6410	3.6410	-1.0733	6.29	0.30	-0.750			
0.3624	23191.00	3.6380	3.6380	-1.0969	6.29	0.30	-0.750			
0.3657	23404.75	3.6350	3.6349	-1.1030	6.29	0.30	-0.750			
0.3690	23616.60	3.6320	3.6320	-1.1165	6.30	0.31	-0.750			
0.3723	23828.64	3.6290	3.6291	-1.1255	6.30	0.31	-0.750			
0.3758	24050.36	3.6260	3.6259	-1.1465	6.30	0.31	-0.750			
0.3793	24273.89	3.6230	3.6229	-1.1561	6.31	0.32	-0.750			
0.3827	24494.62	3.6200	3.6200	-1.1697	6.31	0.32	-0.750			
0.3862	24719.88	3.6170	3.6173	-1.1913	6.31	0.32	-0.750			
0.3899	24954.52	3.6140	3.6138	-1.2056	6.31	0.32	-0.750			
0.3935	25185.53	3.6110	3.6108	-1.2091	6.31	0.32	-0.750			
0.3971	25417.16	3.6080	3.6080	-1.2143	6.31	0.32	-0.750			
0.4009	25656.48	3.6050	3.6049	-1.2464	6.31	0.32	-0.750			
0.4046	25897.20	3.6020	3.6019	-1.2525	6.32	0.33	-0.750			
0.4084	26137.48	3.5990	3.5988	-1.2491	6.32	0.33	-0.750			
0.4121	26377.03	3.5960	3.5961	-1.2683	6.32	0.33	-0.750	0.494	1.133	
0.4160	26626.94	3.5930	3.5928	-1.2934	6.32	0.33	-0.750			
0.4199	26871.85	3.5900	3.5900	-1.3172	6.33	0.34	-0.750			
0.4238	27124.26	3.5870	3.5872	-1.3249	6.33	0.34	-0.750			
0.4279	27387.17	3.5840	3.5839	-1.3459	6.33	0.34	-0.750			
0.4320	27648.26	3.5810	3.5809	-1.3515	6.33	0.34	-0.750			
0.4360	27905.71	3.5780	3.5783	-1.3567	6.33	0.34	-0.750			
0.4401	28168.77	3.5750	3.5749	-1.3931	6.33	0.34	-0.750			
0.4443	28435.45	3.5720	3.5719	-1.4011	6.34	0.35	-0.750			
0.4486	28708.12	3.5690	3.5691	-1.4215	6.34	0.35	-0.750			
0.4529	28988.23	3.5660	3.5658	-1.4469	6.34	0.35	-0.750			
0.4573	29265.44	3.5630	3.5631	-1.4751	6.35	0.36	-0.750			
0.4617	29550.05	3.5600	3.5601	-1.4872	6.35	0.36	-0.750			
0.4663	29841.14	3.5570	3.5568	-1.4958	6.35	0.36	-0.750			
0.4707	30126.38	3.5540	3.5541	-1.5023	6.35	0.36	-0.750			
0.4752	30415.09	3.5510	3.5507	-1.5164	6.35	0.36	-0.750			
0.4798	30708.17	3.5480	3.5480	-1.5502	6.35	0.36	-0.750			
0.4845	31006.83	3.5450	3.5449	-1.5566	6.35	0.36	-0.750			
0.4892	31307.68	3.5420	3.5420	-1.5674	6.35	0.36	-0.750			
0.4939	31611.18	3.5390	3.5388	-1.5733	6.36	0.37	-0.750			
0.4987	31916.56	3.5360	3.5360	-1.5987	6.36	0.37	-0.750			
0.5035	32220.88	3.5330	3.5326	-1.5938	6.36	0.37	-0.750			
0.5083	32528.44	3.5300	3.5300	-1.5971	6.35	0.36	-0.750			
0.5130	32833.52	3.5270	3.5268	-1.6209	6.35	0.36	-0.750			
0.5180	33152.49	3.5240	3.5237	-1.6388	6.36	0.37	-0.750			
0.5229	33463.39	3.5210	3.5211	-1.6351	6.37	0.38	-0.750			
0.5279	33785.72	3.5180	3.5181	-1.6573	6.37	0.38	-0.750			
0.5328	34102.25	3.5150	3.5149	-1.6448	6.37	0.38	-0.750			
0.5378	34417.34	3.5120	3.5118	-1.6574	6.38	0.39	-0.750			
0.5428	34738.10	3.5090	3.5090	-1.6570	6.39	0.40	-0.750			
0.5478	35058.24	3.5060	3.5061	-1.6561	6.41	0.42	-0.750			
0.5526	35369.07	3.5030	3.5032	-1.6759	6.42	0.43	-0.750			
0.5577	35694.75	3.5000	3.5000	-1.6476	6.43	0.44	-0.750			
0.5627	36011.22	3.4970	3.4972	-1.6581	6.43	0.44	-0.750			
0.5676	36328.03	3.4940	3.4939	-1.6737	6.44	0.45	-0.750			
0.5726	36647.47	3.4910	3.4914	-1.6731	6.45	0.46	-0.750			
0.5777	36974.51	3.4880	3.4883	-1.6722	6.47	0.48	-0.750			
0.5828	37302.21	3.4850	3.4850	-1.6795	6.49	0.50	-0.750			
0.5879	37625.16	3.4820	3.4819	-1.6911	6.51	0.52	-0.750			
0.5929	37942.56	3.4790	3.4789	-1.6534	6.52	0.53	-0.750			
0.5977	38255.44	3.4760	3.4760	-1.6376	6.53	0.54	-0.750			
0.6026	38566.99	3.4730	3.4730	-1.6136	6.55	0.56	-0.750			
0.6074	38876.55	3.4700	3.4698	-1.6069	6.56	0.57	-0.750			
0.6121	39175.05	3.4670	3.4671	-1.6245	6.58	0.59	-0.750			
0.6169	39483.48	3.4640	3.4640	-1.6430	6.60	0.61	-0.750			
0.6219	39804.03	3.4610	3.4606	-1.6341	6.63	0.64	-0.750			
0.6270	40126.57	3.4580	3.4577	-1.6304	6.64	0.65	-0.750			
0.6320	40446.74	3.4550	3.4555	-1.6161	6.66	0.67	-0.750			
0.6369	40764.43	3.4520	3.4520	-1.5746	6.68	0.69	-0.750			
0.6415	41058.12	3.4490	3.4488	-1.4997	6.70	0.71	-0.750			
0.6458	41330.18	3.4460	3.4459	-1.4405	6.72	0.73	-0.750			
0.6500	41599.53	3.4430	3.4430	-1.3995	6.74	0.75	-0.750			
0.6542	41869.90	3.4400	3.4399	-1.3803	6.75	0.76	-0.750			
0.6582	42126.59	3.4370	3.4369	-1.3494	6.76	0.77	-0.750			
0.6622	42380.72	3.4340	3.4340	-1.3121	6.78	0.79	-0.750			
0.6662	42637.38	3.4310	3.4309	-1.2869	6.80	0.81	-0.750			
0.6701	42883.45	3.4280	3.4279	-1.2469	6.82	0.83	-0.750			
0.6737	43114.22	3.4250	3.4252	-1.2278	6.83	0.84	-0.750			
0.6774	43351.26	3.4220	3.4220	-1.2052	6.85	0.86	-0.750			
0.6809	43577.50	3.4190	3.4187	-1.1773	6.87	0.88	-0.750			
0.6844	43801.62	3.4160	3.4160	-1.1543	6.89	0.90	-0.750			
0.6879	44023.71	3.4130	3.4130	-1.1358	6.90	0.91	-0.750			
0.6912	44239.45	3.4100	3.4100	-1.1066	6.91	0.92	-0.750			
0.6945	44450.40	3.4070	3.4070	-1.0741	6.93	0.94	-0.750			
0.6976	44648.09	3.4040	3.4041	-1.0363	6.94	0.95	-0.750			
0.7008	44850.47	3.4010	3.4010	-1.0201	6.95	0.96	-0.750			
0.7038	45042.21	3.3980	3.3980	-0.9853	6.96	0.97	-0.750			
0.7067	45228.63	3.3950	3.3949	-0.9567	6.98	0.99	-0.750			
0.7095	45408.78	3.3920	3.3920	-0.9290	6.99	1.00	-0.750			
0.7123	45584.51	3.3890	3.3889	-0.9048	7.00	1.01	-0.750			
0.7149	45756.51	3.3860	3.3860	-0.8786	7.01	1.02	-0.750			
0.7175	45921.91	3.3830	3.3829	-0.8504	7.02	1.03	-0.750			
0.7200	46081.57	3.3800	3.3801	-0.8259	7.04	1.05	-0.750			
0.7225	46240.34	3.3770	3.3770	-0.8012	7.05	1.06	-0.750			
0.7249	46391.09	3.3740	3.3739	-0.7742	7.06	1.07	-0.750			
0.7271	46537.16	3.3710	3.3710	-0.7527	7.07	1.08	-0.750			
