Ah_balance (normalized)	Ah_balance (mAh)	Voltage - fit (V)	Voltage -  interpolate (V)	dQ/dV (1/V)	Temperature (°C)	Temperature - diff (°C)	Current (C)	R_DC 0ms (mOhm)	R_DC 50ms (mOhm)	R_DC 50 ms PEC (mOhm)
0.0939	6011.73	4.0100	4.0098	-0.0646	5.82	0.01	-0.750			
0.0942	6027.41	4.0070	4.0066	-0.0958	5.82	0.01	-0.750			
0.0945	6049.24	4.0040	4.0037	-0.1240	5.82	0.01	-0.750			
0.0949	6075.53	4.0010	4.0010	-0.1498	5.82	0.01	-0.750			
0.0954	6106.74	3.9980	3.9980	-0.1758	5.82	0.01	-0.750			
0.0960	6143.11	3.9950	3.9951	-0.2003	5.82	0.01	-0.750			
0.0966	6184.91	3.9920	3.9920	-0.2255	5.81	0.00	-0.750			
0.0974	6230.73	3.9890	3.9888	-0.2474	5.81	0.00	-0.750			
0.0981	6280.40	3.9860	3.9862	-0.2705	5.81	-0.00	-0.750			
0.0990	6334.74	3.9830	3.9831	-0.2922	5.81	-0.00	-0.750			
0.0999	6392.76	3.9800	3.9800	-0.3159	5.80	-0.01	-0.750			
0.1009	6455.63	3.9770	3.9770	-0.3381	5.80	-0.01	-0.750			
0.1019	6522.32	3.9740	3.9740	-0.3614	5.80	-0.01	-0.750			
0.1030	6593.44	3.9710	3.9710	-0.3862	5.79	-0.02	-0.750			
0.1042	6670.24	3.9680	3.9680	-0.4124	5.79	-0.02	-0.750			
0.1055	6751.08	3.9650	3.9650	-0.4402	5.79	-0.02	-0.750			
0.1069	6839.69	3.9620	3.9619	-0.4619	5.78	-0.03	-0.750			
0.1083	6930.43	3.9590	3.9590	-0.4842	5.78	-0.03	-0.750			
0.1098	7027.25	3.9560	3.9560	-0.5063	5.77	-0.04	-0.750			
0.1113	7125.83	3.9530	3.9529	-0.5262	5.77	-0.04	-0.750			
0.1129	7227.88	3.9500	3.9500	-0.5477	5.77	-0.04	-0.750			
0.1146	7334.94	3.9470	3.9471	-0.5698	5.76	-0.05	-0.750			
0.1163	7445.33	3.9440	3.9439	-0.5935	5.76	-0.05	-0.750			
0.1182	7564.79	3.9410	3.9410	-0.6127	5.76	-0.05	-0.750			
0.1201	7685.21	3.9380	3.9380	-0.6260	5.75	-0.06	-0.750			
0.1220	7807.37	3.9350	3.9350	-0.6380	5.75	-0.06	-0.750			
0.1239	7931.59	3.9320	3.9320	-0.6478	5.75	-0.06	-0.750			
0.1259	8056.20	3.9290	3.9290	-0.6589	5.75	-0.06	-0.750			
0.1278	8181.74	3.9260	3.9260	-0.6733	5.75	-0.06	-0.750			
0.1299	8312.35	3.9230	3.9230	-0.6816	5.75	-0.06	-0.750			
0.1320	8446.92	3.9200	3.9200	-0.6978	5.75	-0.06	-0.750			
0.1341	8583.14	3.9170	3.9169	-0.7064	5.75	-0.06	-0.750			
0.1362	8719.48	3.9140	3.9141	-0.7123	5.75	-0.06	-0.750			
0.1384	8857.72	3.9110	3.9110	-0.7176	5.75	-0.06	-0.750			
0.1405	8994.74	3.9080	3.9079	-0.7241	5.76	-0.05	-0.750			
0.1427	9133.32	3.9050	3.9051	-0.7271	5.76	-0.05	-0.750			
0.1449	9275.03	3.9020	3.9021	-0.7370	5.76	-0.05	-0.750			
0.1471	9417.26	3.8990	3.8989	-0.7416	5.77	-0.04	-0.750			
0.1494	9560.62	3.8960	3.8960	-0.7462	5.77	-0.04	-0.750			
0.1516	9704.09	3.8930	3.8930	-0.7494	5.78	-0.03	-0.750			
0.1539	9849.12	3.8900	3.8899	-0.7536	5.78	-0.03	-0.750			
0.1562	9994.18	3.8870	3.8870	-0.7547	5.78	-0.03	-0.750			
0.1584	10140.29	3.8840	3.8840	-0.7584	5.79	-0.02	-0.750			
0.1607	10286.03	3.8810	3.8812	-0.7606	5.79	-0.02	-0.750			
0.1630	10431.82	3.8780	3.8780	-0.7656	5.79	-0.02	-0.750			
0.1653	10578.41	3.8750	3.8750	-0.7691	5.80	-0.01	-0.750			
0.1676	10726.32	3.8720	3.8720	-0.7727	5.80	-0.01	-0.750			
0.1700	10877.15	3.8690	3.8689	-0.7784	5.81	-0.00	-0.750			
0.1723	11025.25	3.8660	3.8660	-0.7797	5.81	-0.00	-0.750			
0.1746	11175.74	3.8630	3.8629	-0.7827	5.81	0.00	-0.750			
0.1770	11325.64	3.8600	3.8599	-0.7858	5.82	0.01	-0.750			
0.1793	11476.31	3.8570	3.8570	-0.7838	5.82	0.01	-0.750			
0.1817	11627.81	3.8540	3.8541	-0.7868	5.82	0.01	-0.750			
0.1841	11780.53	3.8510	3.8510	-0.7929	5.83	0.02	-0.750			
0.1865	11933.70	3.8480	3.8480	-0.7910	5.83	0.02	-0.750			
0.1888	12082.44	3.8450	3.8450	-0.7922	5.84	0.03	-0.750			
0.1912	12236.02	3.8420	3.8420	-0.7938	5.84	0.03	-0.750			
0.1936	12388.68	3.8390	3.8390	-0.7966	5.84	0.03	-0.750			
0.1960	12542.34	3.8360	3.8359	-0.8017	5.85	0.04	-0.750			
0.1983	12694.17	3.8330	3.8332	-0.8081	5.85	0.04	-0.750			
0.2008	12848.80	3.8300	3.8300	-0.8188	5.86	0.05	-0.750			
0.2033	13008.71	3.8270	3.8269	-0.8293	5.86	0.05	-0.750			
0.2058	13170.32	3.8240	3.8238	-0.8275	5.87	0.06	-0.750			
0.2083	13332.83	3.8210	3.8211	-0.8315	5.87	0.06	-0.750			
0.2108	13491.54	3.8180	3.8181	-0.8252	5.88	0.07	-0.750			
0.2133	13651.24	3.8150	3.8149	-0.8164	5.89	0.08	-0.750			
0.2157	13805.79	3.8120	3.8119	-0.8120	5.89	0.08	-0.750			
0.2181	13957.48	3.8090	3.8090	-0.8068	5.90	0.09	-0.750			
0.2205	14113.07	3.8060	3.8060	-0.8093	5.90	0.09	-0.750			
0.2230	14269.47	3.8030	3.8032	-0.8091	5.91	0.10	-0.750			
0.2254	14425.25	3.8000	3.8000	-0.8080	5.91	0.10	-0.750			
0.2278	14579.78	3.7970	3.7970	-0.8103	5.92	0.11	-0.750			
0.2303	14736.37	3.7940	3.7940	-0.8085	5.92	0.11	-0.750			
0.2327	14890.54	3.7910	3.7909	-0.8101	5.93	0.12	-0.750			
0.2351	15045.58	3.7880	3.7881	-0.8075	5.93	0.12	-0.750			
0.2375	15200.54	3.7850	3.7850	-0.8097	5.94	0.13	-0.750			
0.2399	15355.89	3.7820	3.7820	-0.8137	5.94	0.13	-0.750			
0.2424	15512.39	3.7790	3.7790	-0.8140	5.95	0.14	-0.750			
0.2448	15669.70	3.7760	3.7760	-0.8087	5.96	0.15	-0.750			
0.2473	15827.08	3.7730	3.7730	-0.8128	5.97	0.16	-0.750			
0.2497	15981.91	3.7700	3.7700	-0.8099	5.97	0.16	-0.750			
0.2521	16136.09	3.7670	3.7670	-0.8146	5.98	0.17	-0.750			
0.2546	16292.12	3.7640	3.7639	-0.8136	5.98	0.17	-0.750			
0.2570	16448.16	3.7610	3.7610	-0.8121	5.98	0.17	-0.750			
0.2595	16606.52	3.7580	3.7579	-0.8163	5.99	0.18	-0.750			
0.2619	16764.48	3.7550	3.7550	-0.8127	5.99	0.18	-0.750			
0.2643	16916.99	3.7520	3.7520	-0.8171	6.00	0.19	-0.750			
0.2668	17074.68	3.7490	3.7490	-0.8186	6.01	0.20	-0.750			
0.2692	17231.49	3.7460	3.7459	-0.8160	6.02	0.21	-0.750			
0.2717	17391.08	3.7430	3.7430	-0.8183	6.03	0.22	-0.750			
0.2742	17549.39	3.7400	3.7401	-0.8197	6.03	0.22	-0.750			
0.2766	17705.03	3.7370	3.7370	-0.8245	6.04	0.23	-0.750			
0.2791	17862.97	3.7340	3.7340	-0.8262	6.04	0.23	-0.750			
0.2815	18018.59	3.7310	3.7309	-0.8278	6.04	0.23	-0.750			
0.2842	18187.38	3.7280	3.7279	-0.7985	6.05	0.24	-0.750			
0.2866	18343.47	3.7250	3.7250	-0.7813	6.05	0.24	-0.750			
0.2888	18485.25	3.7220	3.7224	-0.7759	6.06	0.25	-0.750			
0.2910	18626.67	3.7190	3.7190	-0.7664	6.06	0.25	-0.750			
0.2932	18765.63	3.7160	3.7156	-0.7728	6.07	0.26	-0.750			
0.2955	18914.87	3.7130	3.7130	-0.7997	6.07	0.26	-0.750			
0.2980	19072.63	3.7100	3.7102	-0.8266	6.08	0.27	-0.750			
0.3007	19242.30	3.7070	3.7070	-0.8673	6.08	0.27	-0.750			
0.3033	19411.85	3.7040	3.7040	-0.8749	6.08	0.27	-0.750			
0.3059	19579.91	3.7010	3.7010	-0.8749	6.09	0.28	-0.750			
0.3086	19750.02	3.6980	3.6980	-0.8803	6.09	0.28	-0.750			
0.3112	19917.93	3.6950	3.6952	-0.8866	6.09	0.28	-0.750			
0.3139	20088.74	3.6920	3.6919	-0.8980	6.10	0.29	-0.750			
0.3166	20261.50	3.6890	3.6889	-0.9064	6.10	0.29	-0.750			
0.3193	20435.53	3.6860	3.6860	-0.9099	6.10	0.29	-0.750			
0.3221	20612.31	3.6830	3.6832	-0.9227	6.11	0.30	-0.750			
0.3248	20789.61	3.6800	3.6799	-0.9372	6.11	0.30	-0.750			
0.3277	20970.85	3.6770	3.6767	-0.9428	6.12	0.31	-0.750			
0.3305	21151.98	3.6740	3.6741	-0.9507	6.12	0.31	-0.750			
0.3333	21334.11	3.6710	3.6711	-0.9564	6.13	0.32	-0.750			
0.3363	21520.77	3.6680	3.6681	-0.9771	6.13	0.32	-0.750			
0.3392	21710.88	3.6650	3.6651	-0.9879	6.14	0.33	-0.750			
0.3422	21898.25	3.6620	3.6619	-0.9932	6.14	0.33	-0.750			
0.3451	22089.54	3.6590	3.6589	-1.0054	6.15	0.34	-0.750			
0.3482	22284.76	3.6560	3.6564	-1.0263	6.15	0.34	-0.750			
0.3513	22482.55	3.6530	3.6530	-1.0384	6.15	0.34	-0.750			
0.3545	22684.83	3.6500	3.6499	-1.0535	6.16	0.35	-0.750			
0.3576	22888.34	3.6470	3.6470	-1.0597	6.16	0.35	-0.750			
0.3608	23090.76	3.6440	3.6442	-1.0862	6.16	0.35	-0.750			
0.3641	23304.17	3.6410	3.6410	-1.0913	6.16	0.35	-0.750			
0.3674	23514.02	3.6380	3.6379	-1.1030	6.17	0.36	-0.750			
0.3707	23725.96	3.6350	3.6349	-1.1137	6.17	0.36	-0.750			
0.3741	23940.67	3.6320	3.6321	-1.1367	6.17	0.36	-0.750			
0.3775	24161.54	3.6290	3.6288	-1.1490	6.18	0.37	-0.750			
0.3810	24381.70	3.6260	3.6260	-1.1707	6.18	0.37	-0.750			
0.3844	24601.81	3.6230	3.6231	-1.1987	6.19	0.38	-0.750			
0.3882	24842.10	3.6200	3.6199	-1.2133	6.19	0.38	-0.750			
0.3918	25077.12	3.6170	3.6169	-1.2212	6.19	0.38	-0.750			
0.3955	25313.10	3.6140	3.6140	-1.2310	6.19	0.38	-0.750			
0.3992	25548.54	3.6110	3.6111	-1.2386	6.19	0.38	-0.750			
0.4030	25791.88	3.6080	3.6079	-1.2616	6.19	0.38	-0.750			
0.4068	26032.91	3.6050	3.6049	-1.2658	6.19	0.38	-0.750			
0.4106	26280.32	3.6020	3.6020	-1.2978	6.19	0.38	-0.750			
0.4145	26528.28	3.5990	3.5992	-1.3006	6.20	0.39	-0.749	0.493	1.131	
0.4184	26778.27	3.5960	3.5958	-1.3155	6.20	0.39	-0.750			
0.4224	27030.51	3.5930	3.5932	-1.3342	6.21	0.40	-0.750			
0.4263	27286.35	3.5900	3.5899	-1.3446	6.21	0.40	-0.750			
0.4304	27547.01	3.5870	3.5870	-1.3525	6.21	0.40	-0.750			
0.4346	27812.54	3.5840	3.5841	-1.3791	6.21	0.40	-0.750			
0.4387	28077.07	3.5810	3.5810	-1.3926	6.21	0.40	-0.750			
0.4430	28351.20	3.5780	3.5779	-1.3944	6.21	0.40	-0.750			
0.4471	28617.60	3.5750	3.5750	-1.4071	6.21	0.40	-0.750			
0.4514	28886.76	3.5720	3.5720	-1.4120	6.21	0.40	-0.750			
0.4556	29160.09	3.5690	3.5688	-1.4438	6.21	0.40	-0.750			
0.4600	29438.60	3.5660	3.5661	-1.4680	6.21	0.40	-0.750			
0.4644	29718.49	3.5630	3.5629	-1.4922	6.22	0.41	-0.750			
0.4689	30012.13	3.5600	3.5603	-1.5259	6.22	0.41	-0.750			
0.4736	30310.58	3.5570	3.5571	-1.5510	6.23	0.42	-0.750			
0.4783	30608.09	3.5540	3.5538	-1.5601	6.22	0.41	-0.750			
0.4830	30912.99	3.5510	3.5511	-1.5930	6.21	0.40	-0.750			
0.4879	31223.59	3.5480	3.5478	-1.6119	6.21	0.40	-0.750			
0.4927	31535.73	3.5450	3.5449	-1.6339	6.21	0.40	-0.750			
0.4977	31851.52	3.5420	3.5422	-1.6257	6.21	0.40	-0.750			
0.5026	32167.33	3.5390	3.5390	-1.6356	6.22	0.41	-0.750			
0.5075	32482.76	3.5360	3.5359	-1.6421	6.23	0.42	-0.750			
0.5124	32791.22	3.5330	3.5332	-1.6368	6.23	0.42	-0.750			
0.5173	33108.63	3.5300	3.5298	-1.6568	6.23	0.42	-0.750			
0.5223	33428.38	3.5270	3.5270	-1.6889	6.23	0.42	-0.750			
0.5275	33756.84	3.5240	3.5240	-1.7071	6.23	0.42	-0.750			
0.5327	34091.56	3.5210	3.5209	-1.7486	6.23	0.42	-0.750			
0.5380	34431.70	3.5180	3.5179	-1.7324	6.23	0.42	-0.750			
0.5431	34760.78	3.5150	3.5148	-1.7421	6.23	0.42	-0.750			
0.5483	35093.11	3.5120	3.5123	-1.7354	6.23	0.42	-0.750			
0.5535	35424.10	3.5090	3.5091	-1.7142	6.24	0.43	-0.750			
0.5587	35755.60	3.5060	3.5061	-1.7194	6.25	0.44	-0.750			
0.5639	36086.75	3.5030	3.5028	-1.7029	6.26	0.45	-0.750			
0.5690	36416.42	3.5000	3.4998	-1.7250	6.26	0.45	-0.750			
0.5741	36745.24	3.4970	3.4971	-1.7067	6.27	0.46	-0.750			
0.5792	37071.31	3.4940	3.4940	-1.6943	6.28	0.47	-0.750			
0.5843	37396.24	3.4910	3.4912	-1.6729	6.29	0.48	-0.750			
0.5894	37720.34	3.4880	3.4879	-1.6506	6.30	0.49	-0.750			
0.5943	38038.17	3.4850	3.4848	-1.6654	6.30	0.49	-0.750			
0.5993	38357.50	3.4820	3.4819	-1.6298	6.31	0.50	-0.750			
0.6042	38665.90	3.4790	3.4791	-1.6202	6.32	0.51	-0.750			
0.6090	38976.97	3.4760	3.4763	-1.6032	6.33	0.52	-0.750			
0.6138	39283.32	3.4730	3.4728	-1.5884	6.34	0.53	-0.750			
0.6186	39588.48	3.4700	3.4701	-1.5896	6.34	0.53	-0.750			
0.6234	39896.08	3.4670	3.4670	-1.5584	6.35	0.54	-0.750			
0.6279	40188.37	3.4640	3.4641	-1.5497	6.36	0.55	-0.750			
0.6326	40488.13	3.4610	3.4610	-1.5315	6.37	0.56	-0.750			
0.6371	40777.09	3.4580	3.4579	-1.4958	6.38	0.57	-0.750			
0.6416	41064.89	3.4550	3.4548	-1.4728	6.39	0.58	-0.750			
0.6460	41341.15	3.4520	3.4518	-1.4553	6.40	0.59	-0.750			
0.6504	41625.50	3.4490	3.4489	-1.4248	6.41	0.60	-0.750			
0.6546	41896.48	3.4460	3.4459	-1.4045	6.42	0.61	-0.750			
0.6587	42155.89	3.4430	3.4431	-1.3658	6.43	0.62	-0.750			
0.6628	42418.58	3.4400	3.4398	-1.3445	6.44	0.63	-0.750			
0.6669	42678.92	3.4370	3.4370	-1.3232	6.45	0.64	-0.750			
0.6707	42927.03	3.4340	3.4338	-1.2995	6.46	0.65	-0.750			
0.6746	43173.53	3.4310	3.4311	-1.2732	6.48	0.67	-0.750			
0.6785	43421.59	3.4280	3.4280	-1.2485	6.49	0.68	-0.750			
0.6821	43652.88	3.4250	3.4250	-1.2091	6.50	0.69	-0.750			
0.6857	43884.57	3.4220	3.4223	-1.1886	6.51	0.70	-0.750			
0.6892	44111.97	3.4190	3.4189	-1.1598	6.52	0.71	-0.750			
0.6927	44332.31	3.4160	3.4159	-1.1322	6.53	0.72	-0.750			
0.6960	44544.40	3.4130	3.4130	-1.1010	6.54	0.73	-0.750			
0.6993	44753.55	3.4100	3.4100	-1.0805	6.55	0.74	-0.750			
0.7025	44959.37	3.4070	3.4070	-1.0503	6.56	0.75	-0.750			
0.7056	45157.37	3.4040	3.4039	-1.0179	6.57	0.76	-0.750			
0.7086	45351.03	3.4010	3.4011	-0.9866	6.58	0.77	-0.750			
0.7115	45539.07	3.3980	3.3980	-0.9612	6.59	0.78	-0.750			
0.7144	45718.42	3.3950	3.3950	-0.9315	6.61	0.80	-0.750			
0.7171	45894.41	3.3920	3.3920	-0.9027	6.62	0.81	-0.750			
0.7198	46064.12	3.3890	3.3889	-0.8750	6.63	0.82	-0.750			
0.7224	46230.72	3.3860	3.3860	-0.8536	6.65	0.84	-0.750			
0.7249	46391.51	3.3830	3.3830	-0.8301	6.66	0.85	-0.750			
0.7273	46548.85	3.3800	3.3800	-0.8062	6.67	0.86	-0.750			
0.7297	46700.30	3.3770	3.3769	-0.7855	6.68	0.87	-0.750			
0.7320	46849.72	3.3740	3.3740	-0.7765	6.69	0.88	-0.750			
