Ah_balance (normalized)	Ah_balance (mAh)	Voltage - fit (V)	Voltage -  interpolate (V)	dQ/dV (1/V)	Temperature (°C)	Temperature - diff (°C)	Current (C)	R_DC 0ms (mOhm)	R_DC 50ms (mOhm)	R_DC 50 ms PEC (mOhm)
0.0386	2469.12	4.1970	4.1970	0.8168	28.69	3.62	0.750			
0.0410	2626.91	4.1940	4.1940	0.8206	28.68	3.61	0.750			
0.0435	2785.31	4.1910	4.1910	0.8199	28.67	3.60	0.750			
0.0460	2942.86	4.1880	4.1880	0.8146	28.66	3.59	0.750			
0.0484	3098.17	4.1850	4.1851	0.8158	28.65	3.58	0.750			
0.0509	3255.69	4.1820	4.1821	0.8088	28.64	3.57	0.750			
0.0533	3409.10	4.1790	4.1789	0.8133	28.63	3.56	0.750			
0.0557	3564.32	4.1760	4.1760	0.8213	28.62	3.55	0.750			
0.0582	3722.65	4.1730	4.1729	0.8241	28.61	3.54	0.750			
0.0607	3881.73	4.1700	4.1700	0.8291	28.60	3.53	0.750			
0.0632	4044.62	4.1670	4.1671	0.8272	28.60	3.53	0.750			
0.0657	4202.42	4.1640	4.1640	0.8332	28.59	3.52	0.750			
0.0682	4362.88	4.1610	4.1610	0.8424	28.58	3.51	0.750			
0.0707	4522.53	4.1580	4.1578	0.8378	28.57	3.50	0.750			
0.0732	4684.11	4.1550	4.1551	0.8389	28.56	3.49	0.750			
0.0758	4848.91	4.1520	4.1520	0.8356	28.55	3.48	0.750			
0.0782	5007.46	4.1490	4.1491	0.8362	28.54	3.47	0.750			
0.0807	5167.15	4.1460	4.1459	0.8295	28.53	3.46	0.750			
0.0832	5326.46	4.1430	4.1429	0.8361	28.51	3.44	0.750			
0.0857	5486.54	4.1400	4.1401	0.8415	28.50	3.43	0.750			
0.0883	5651.03	4.1370	4.1370	0.8398	28.49	3.42	0.750			
0.0908	5812.54	4.1340	4.1341	0.8372	28.48	3.41	0.750			
0.0933	5973.07	4.1310	4.1310	0.8345	28.46	3.39	0.750			
0.0958	6132.38	4.1280	4.1280	0.8366	28.45	3.38	0.750			
0.0983	6291.85	4.1250	4.1249	0.8376	28.44	3.37	0.750			
0.1008	6452.36	4.1220	4.1220	0.8360	28.44	3.37	0.750			
0.1034	6615.51	4.1190	4.1191	0.8381	28.43	3.36	0.750			
0.1059	6777.67	4.1160	4.1160	0.8405	28.42	3.35	0.750			
0.1084	6937.74	4.1130	4.1129	0.8415	28.41	3.34	0.750			
0.1109	7097.45	4.1100	4.1100	0.8390	28.40	3.33	0.750			
0.1134	7259.02	4.1070	4.1070	0.8365	28.38	3.31	0.750			
0.1159	7420.22	4.1040	4.1041	0.8428	28.37	3.30	0.750			
0.1185	7581.91	4.1010	4.1011	0.8483	28.36	3.29	0.750			
0.1210	7746.35	4.0980	4.0978	0.8542	28.34	3.27	0.750			
0.1236	7909.47	4.0950	4.0951	0.8561	28.33	3.26	0.750			
0.1262	8074.55	4.0920	4.0920	0.8580	28.32	3.25	0.750			
0.1288	8241.80	4.0890	4.0891	0.8610	28.31	3.24	0.750			
0.1314	8406.64	4.0860	4.0860	0.8610	28.30	3.23	0.750			
0.1339	8571.04	4.0830	4.0826	0.8600	28.29	3.22	0.750			
0.1365	8734.83	4.0800	4.0801	0.8654	28.28	3.21	0.750			
0.1391	8901.77	4.0770	4.0770	0.8739	28.26	3.19	0.750			
0.1417	9069.59	4.0740	4.0740	0.8842	28.25	3.18	0.750			
0.1444	9241.75	4.0710	4.0710	0.8924	28.23	3.16	0.750			
0.1471	9414.87	4.0680	4.0681	0.8916	28.22	3.15	0.750			
0.1498	9586.78	4.0650	4.0650	0.8874	28.21	3.14	0.750			
0.1525	9758.25	4.0620	4.0622	0.8893	28.20	3.13	0.750			
0.1551	9927.55	4.0590	4.0589	0.8849	28.19	3.12	0.750			
0.1577	10095.00	4.0560	4.0560	0.8868	28.17	3.10	0.750			
0.1604	10264.83	4.0530	4.0531	0.8890	28.16	3.09	0.750			
0.1631	10437.95	4.0500	4.0499	0.8888	28.15	3.08	0.750			
0.1658	10609.41	4.0470	4.0470	0.8900	28.13	3.06	0.750			
0.1684	10780.31	4.0440	4.0441	0.8896	28.12	3.05	0.750			
0.1711	10950.52	4.0410	4.0409	0.8817	28.10	3.03	0.750			
0.1737	11119.44	4.0380	4.0379	0.8801	28.09	3.02	0.750			
0.1763	11285.01	4.0350	4.0352	0.8882	28.07	3.00	0.750			
0.1790	11453.58	4.0320	4.0320	0.9004	28.06	2.99	0.750			
0.1817	11627.90	4.0290	4.0289	0.9174	28.04	2.97	0.750			
0.1844	11803.43	4.0260	4.0260	0.9332	28.03	2.96	0.750			
0.1873	11988.16	4.0230	4.0230	0.9370	28.02	2.95	0.750			
0.1903	12176.88	4.0200	4.0200	0.9413	28.01	2.94	0.750			
0.1931	12355.79	4.0170	4.0171	0.9366	28.00	2.93	0.750			
0.1958	12532.68	4.0140	4.0140	0.9263	27.99	2.92	0.750			
0.1986	12710.33	4.0110	4.0110	0.9130	27.98	2.91	0.750			
0.2013	12882.92	4.0080	4.0080	0.9121	27.97	2.90	0.750			
0.2040	13055.68	4.0050	4.0051	0.9124	27.95	2.88	0.750			
0.2068	13233.95	4.0020	4.0020	0.9223	27.94	2.87	0.750			
0.2095	13410.78	3.9990	3.9989	0.9265	27.93	2.86	0.750			
0.2123	13588.47	3.9960	3.9960	0.9155	27.92	2.85	0.750			
0.2151	13764.98	3.9930	3.9930	0.9227	27.91	2.84	0.750			
0.2179	13942.83	3.9900	3.9901	0.9272	27.89	2.82	0.750			
0.2206	14117.98	3.9870	3.9869	0.9253	27.88	2.81	0.750			
0.2234	14296.76	3.9840	3.9840	0.9364	27.87	2.80	0.750			
0.2262	14475.56	3.9810	3.9810	0.9507	27.86	2.79	0.750			
0.2291	14659.69	3.9780	3.9780	0.9667	27.84	2.77	0.750			
0.2320	14851.03	3.9750	3.9750	0.9677	27.83	2.76	0.750			
0.2350	15039.24	3.9720	3.9721	0.9655	27.81	2.74	0.750			
0.2379	15225.82	3.9690	3.9690	0.9596	27.80	2.73	0.750			
0.2407	15406.85	3.9660	3.9660	0.9566	27.79	2.72	0.750			
0.2436	15588.02	3.9630	3.9630	0.9543	27.77	2.70	0.750			
0.2464	15767.65	3.9600	3.9599	0.9545	27.76	2.69	0.750			
0.2493	15955.05	3.9570	3.9570	0.9470	27.75	2.68	0.750			
0.2521	16136.68	3.9540	3.9541	0.9621	27.74	2.67	0.750			
0.2550	16322.96	3.9510	3.9510	0.9671	27.73	2.66	0.750			
0.2579	16505.73	3.9480	3.9482	0.9747	27.72	2.65	0.750			
0.2609	16694.89	3.9450	3.9450	0.9773	27.71	2.64	0.750			
0.2638	16883.43	3.9420	3.9421	0.9847	27.69	2.62	0.750			
0.2668	17073.72	3.9390	3.9390	0.9945	27.68	2.61	0.750			
0.2698	17267.38	3.9360	3.9362	0.9895	27.66	2.59	0.750			
0.2728	17459.60	3.9330	3.9330	0.9891	27.65	2.58	0.750			
0.2758	17648.06	3.9300	3.9301	0.9928	27.64	2.57	0.750			
0.2787	17838.91	3.9270	3.9271	0.9827	27.63	2.56	0.750			
0.2817	18030.10	3.9240	3.9239	0.9849	27.62	2.55	0.750			
0.2846	18213.29	3.9210	3.9212	0.9883	27.61	2.54	0.750			
0.2875	18402.15	3.9180	3.9181	0.9957	27.59	2.52	0.750			
0.2906	18596.23	3.9150	3.9148	1.0052	27.57	2.50	0.750			
0.2936	18789.91	3.9120	3.9120	1.0096	27.56	2.49	0.750			
0.2966	18984.96	3.9090	3.9091	1.0080	27.54	2.47	0.750			
0.2997	19181.63	3.9060	3.9061	1.0084	27.52	2.45	0.750			
0.3027	19372.57	3.9030	3.9030	1.0083	27.50	2.43	0.750			
0.3057	19562.99	3.9000	3.9001	1.0125	27.49	2.42	0.750			
0.3087	19757.52	3.8970	3.8967	1.0231	27.47	2.40	0.750			
0.3118	19956.33	3.8940	3.8941	1.0282	27.45	2.38	0.750			
0.3149	20153.78	3.8910	3.8911	1.0375	27.44	2.37	0.750			
0.3181	20358.02	3.8880	3.8880	1.0488	27.42	2.35	0.750			
0.3213	20561.07	3.8850	3.8849	1.0430	27.40	2.33	0.750			
0.3243	20757.08	3.8820	3.8819	1.0292	27.38	2.31	0.750			
0.3274	20954.06	3.8790	3.8792	1.0329	27.36	2.29	0.750			
0.3305	21150.66	3.8760	3.8760	1.0365	27.34	2.27	0.750			
0.3336	21350.15	3.8730	3.8726	1.0393	27.32	2.25	0.750			
0.3367	21548.56	3.8700	3.8701	1.0365	27.30	2.23	0.750			
0.3398	21747.09	3.8670	3.8671	1.0549	27.28	2.21	0.750			
0.3430	21954.49	3.8640	3.8640	1.0694	27.25	2.18	0.750			
0.3463	22161.44	3.8610	3.8608	1.0710	27.23	2.16	0.750			
0.3495	22365.68	3.8580	3.8579	1.0640	27.19	2.12	0.750			
0.3527	22570.17	3.8550	3.8553	1.0636	27.16	2.09	0.750			
0.3558	22774.37	3.8520	3.8520	1.0693	27.12	2.05	0.750			
0.3590	22978.65	3.8490	3.8491	1.0752	27.09	2.02	0.750			
0.3622	23182.48	3.8460	3.8456	1.0777	27.06	1.99	0.750			
0.3655	23392.16	3.8430	3.8432	1.0915	27.02	1.95	0.750			
0.3688	23604.31	3.8400	3.8402	1.1005	26.98	1.91	0.750			
0.3722	23821.07	3.8370	3.8370	1.1038	26.94	1.87	0.750			
0.3755	24030.95	3.8340	3.8339	1.1125	26.89	1.82	0.750			
0.3788	24241.18	3.8310	3.8311	1.1068	26.85	1.78	0.750			
0.3821	24453.99	3.8280	3.8279	1.1121	26.80	1.73	0.750			
0.3854	24667.83	3.8250	3.8253	1.1213	26.75	1.68	0.750			
0.3888	24881.89	3.8220	3.8220	1.1333	26.69	1.62	0.750			
0.3922	25098.53	3.8190	3.8190	1.1528	26.64	1.57	0.750			
0.3957	25325.31	3.8160	3.8158	1.1675	26.58	1.51	0.750			
0.3993	25552.89	3.8130	3.8131	1.1716	26.52	1.45	0.750			
0.4028	25782.18	3.8100	3.8098	1.1756	26.46	1.39	0.750			
0.4064	26009.11	3.8070	3.8072	1.1758	26.40	1.33	0.750			
0.4099	26234.09	3.8040	3.8038	1.1635	26.34	1.27	0.750			
0.4133	26452.68	3.8010	3.8012	1.1604	26.28	1.21	0.750			
0.4168	26672.57	3.7980	3.7980	1.1492	26.21	1.14	0.750			
0.4203	26896.65	3.7950	3.7950	1.1530	26.14	1.07	0.750			
0.4237	27118.01	3.7920	3.7922	1.1431	26.08	1.01	0.750			
0.4271	27336.91	3.7890	3.7889	1.1517	26.02	0.95	0.750			
0.4306	27557.17	3.7860	3.7862	1.1453	25.96	0.89	0.750			
0.4341	27780.60	3.7830	3.7826	1.1317	25.90	0.83	0.750			
0.4374	27995.87	3.7800	3.7801	1.1304	25.83	0.76	0.750			
0.4409	28216.75	3.7770	3.7772	1.1121	25.77	0.70	0.750			
0.4442	28428.33	3.7740	3.7741	1.0989	25.71	0.64	0.750			
0.4474	28636.37	3.7710	3.7708	1.0614	25.65	0.58	0.750			
0.4506	28837.64	3.7680	3.7683	1.0443	25.60	0.53	0.750			
0.4537	29039.70	3.7650	3.7651	1.0138	25.54	0.47	0.750			
0.4567	29231.91	3.7620	3.7619	0.9799	25.50	0.43	0.750			
0.4596	29416.31	3.7590	3.7591	0.9365	25.45	0.38	0.750			
0.4624	29596.64	3.7560	3.7561	0.8967	25.40	0.33	0.750			
0.4650	29761.00	3.7530	3.7530	0.8507	25.36	0.29	0.750			
0.4675	29920.40	3.7500	3.7501	0.8148	25.32	0.25	0.750			
0.4698	30066.86	3.7470	3.7470	0.7759	25.29	0.22	0.750			
0.4721	30213.34	3.7440	3.7440	0.7595	25.25	0.18	0.750			
0.4743	30355.33	3.7410	3.7411	0.7437	25.21	0.14	0.750			
0.4765	30497.51	3.7380	3.7377	0.7280	25.18	0.11	0.750			
0.4787	30636.43	3.7350	3.7351	0.7191	25.15	0.08	0.750			
0.4809	30774.52	3.7320	3.7321	0.6989	25.11	0.04	0.750			
0.4830	30910.73	3.7290	3.7289	0.6790	25.08	0.01	0.750			
0.4850	31040.54	3.7260	3.7260	0.6414	25.05	-0.02	0.750			
0.4869	31162.68	3.7230	3.7231	0.6044	25.03	-0.04	0.750			
0.4887	31277.03	3.7200	3.7200	0.5531	25.00	-0.07	0.750			
0.4903	31381.66	3.7170	3.7170	0.5011	24.98	-0.09	0.750			
0.4917	31470.68	3.7140	3.7140	0.4356	24.95	-0.12	0.750			
0.4929	31548.49	3.7110	3.7110	0.3767	24.94	-0.13	0.750			
0.4940	31614.46	3.7080	3.7079	0.3144	24.92	-0.15	0.750			
0.4948	31668.30	3.7050	3.7049	0.2552	24.91	-0.16	0.750			
0.4955	31711.05	3.7020	3.7020	0.2024	24.90	-0.17	0.750			
0.4960	31744.97	3.6990	3.6990	0.1509	24.89	-0.18	0.750			
