Ah_balance (normalized)	Ah_balance (mAh)	Voltage - fit (V)	Voltage -  interpolate (V)	dQ/dV (1/V)	Temperature (°C)	Temperature - diff (°C)	Current (C)	R_DC 0ms (mOhm)	R_DC 50ms (mOhm)	R_DC 50 ms PEC (mOhm)
0.0549	3516.44	4.1980	4.1979	0.8377	27.53	3.09	0.750			
0.0574	3673.40	4.1950	4.1951	0.8160	27.53	3.09	0.750			
0.0598	3828.97	4.1920	4.1920	0.8115	27.53	3.09	0.750			
0.0622	3983.23	4.1890	4.1890	0.8133	27.53	3.09	0.750			
0.0646	4137.33	4.1860	4.1860	0.8120	27.53	3.09	0.750			
0.0671	4294.45	4.1830	4.1829	0.8230	27.53	3.09	0.750			
0.0696	4454.00	4.1800	4.1800	0.8327	27.53	3.09	0.750			
0.0721	4615.52	4.1770	4.1770	0.8349	27.52	3.08	0.750			
0.0746	4776.98	4.1740	4.1741	0.8353	27.51	3.07	0.750			
0.0772	4938.21	4.1710	4.1710	0.8314	27.51	3.07	0.750			
0.0797	5097.78	4.1680	4.1679	0.8304	27.50	3.06	0.750			
0.0821	5256.17	4.1650	4.1650	0.8278	27.50	3.06	0.750			
0.0846	5413.31	4.1620	4.1621	0.8264	27.49	3.05	0.750			
0.0871	5572.35	4.1590	4.1590	0.8292	27.49	3.05	0.750			
0.0896	5732.07	4.1560	4.1560	0.8314	27.48	3.04	0.750			
0.0921	5892.08	4.1530	4.1530	0.8378	27.48	3.04	0.750			
0.0946	6054.07	4.1500	4.1501	0.8408	27.47	3.03	0.750			
0.0971	6216.17	4.1470	4.1469	0.8368	27.47	3.03	0.750			
0.0996	6376.46	4.1440	4.1440	0.8363	27.46	3.02	0.750			
0.1021	6535.66	4.1410	4.1412	0.8370	27.46	3.02	0.750			
0.1046	6696.46	4.1380	4.1379	0.8397	27.45	3.01	0.750			
0.1071	6857.41	4.1350	4.1349	0.8435	27.45	3.01	0.750			
0.1097	7018.63	4.1320	4.1321	0.8511	27.45	3.01	0.750			
0.1122	7183.40	4.1290	4.1290	0.8624	27.44	3.00	0.750			
0.1149	7351.26	4.1260	4.1259	0.8672	27.44	3.00	0.750			
0.1175	7519.97	4.1230	4.1228	0.8692	27.44	3.00	0.750			
0.1201	7688.63	4.1200	4.1200	0.8658	27.44	3.00	0.750			
0.1227	7855.49	4.1170	4.1172	0.8624	27.44	3.00	0.750			
0.1253	8019.80	4.1140	4.1139	0.8619	27.43	2.99	0.750			
0.1279	8183.25	4.1110	4.1110	0.8540	27.43	2.99	0.750			
0.1304	8345.89	4.1080	4.1080	0.8535	27.43	2.99	0.750			
0.1330	8509.42	4.1050	4.1051	0.8575	27.43	2.99	0.750			
0.1356	8675.94	4.1020	4.1020	0.8699	27.42	2.98	0.750			
0.1382	8843.67	4.0990	4.0990	0.8750	27.42	2.98	0.750			
0.1408	9011.47	4.0960	4.0959	0.8806	27.41	2.97	0.750			
0.1435	9181.42	4.0930	4.0930	0.8848	27.41	2.97	0.750			
0.1462	9354.81	4.0900	4.0900	0.8904	27.40	2.96	0.750			
0.1488	9525.42	4.0870	4.0870	0.8900	27.40	2.96	0.750			
0.1515	9697.35	4.0840	4.0840	0.8903	27.40	2.96	0.750			
0.1542	9866.24	4.0810	4.0809	0.8861	27.39	2.95	0.750			
0.1568	10037.46	4.0780	4.0780	0.8846	27.39	2.95	0.750			
0.1595	10206.00	4.0750	4.0750	0.8843	27.39	2.95	0.750			
0.1621	10375.71	4.0720	4.0719	0.8884	27.40	2.96	0.750			
0.1648	10545.10	4.0690	4.0690	0.9005	27.40	2.96	0.750			
0.1675	10718.58	4.0660	4.0659	0.9048	27.40	2.96	0.750			
0.1703	10896.06	4.0630	4.0629	0.9013	27.40	2.96	0.750			
0.1730	11069.17	4.0600	4.0601	0.9051	27.40	2.96	0.750			
0.1757	11244.80	4.0570	4.0571	0.9043	27.39	2.95	0.750			
0.1784	11417.09	4.0540	4.0540	0.8999	27.39	2.95	0.750			
0.1811	11587.35	4.0510	4.0509	0.8962	27.39	2.95	0.750			
0.1837	11757.36	4.0480	4.0481	0.8980	27.39	2.95	0.750			
0.1864	11930.57	4.0450	4.0450	0.9083	27.39	2.95	0.750			
0.1891	12105.28	4.0420	4.0419	0.9197	27.39	2.95	0.750			
0.1919	12280.98	4.0390	4.0389	0.9282	27.39	2.95	0.750			
0.1948	12464.98	4.0360	4.0360	0.9311	27.39	2.95	0.750			
0.1976	12644.41	4.0330	4.0331	0.9317	27.40	2.96	0.750			
0.2004	12825.20	4.0300	4.0301	0.9304	27.40	2.96	0.750			
0.2032	13002.31	4.0270	4.0271	0.9303	27.41	2.97	0.750			
0.2059	13177.57	4.0240	4.0240	0.9294	27.41	2.97	0.750			
0.2087	13354.66	4.0210	4.0210	0.9356	27.41	2.97	0.750			
0.2115	13534.39	4.0180	4.0180	0.9445	27.40	2.96	0.750			
0.2144	13719.14	4.0150	4.0150	0.9555	27.40	2.96	0.750			
0.2173	13904.32	4.0120	4.0119	0.9555	27.40	2.96	0.750			
0.2202	14091.65	4.0090	4.0091	0.9528	27.40	2.96	0.750			
0.2230	14273.56	4.0060	4.0060	0.9480	27.40	2.96	0.750			
0.2258	14453.42	4.0030	4.0030	0.9444	27.41	2.97	0.750			
0.2286	14631.87	4.0000	4.0002	0.9419	27.41	2.97	0.750			
0.2315	14813.48	3.9970	3.9970	0.9435	27.41	2.97	0.750			
0.2343	14994.23	3.9940	3.9940	0.9540	27.41	2.97	0.750			
0.2372	15178.56	3.9910	3.9910	0.9649	27.41	2.97	0.750			
0.2401	15365.65	3.9880	3.9880	0.9789	27.41	2.97	0.750			
0.2430	15554.24	3.9850	3.9849	0.9799	27.41	2.97	0.750			
0.2460	15744.23	3.9820	3.9821	0.9813	27.41	2.97	0.750			
0.2490	15933.83	3.9790	3.9791	0.9810	27.40	2.96	0.750			
0.2519	16122.13	3.9760	3.9760	0.9833	27.40	2.96	0.750			
0.2548	16309.85	3.9730	3.9729	0.9812	27.40	2.96	0.750			
0.2578	16498.04	3.9700	3.9700	0.9758	27.41	2.97	0.750			
0.2607	16683.38	3.9670	3.9671	0.9875	27.41	2.97	0.750			
0.2637	16876.34	3.9640	3.9641	0.9937	27.42	2.98	0.750			
0.2667	17066.81	3.9610	3.9608	0.9968	27.43	2.99	0.750			
0.2697	17260.34	3.9580	3.9581	0.9939	27.43	2.99	0.750			
0.2727	17450.80	3.9550	3.9551	0.9925	27.42	2.98	0.750			
0.2757	17642.27	3.9520	3.9520	0.9920	27.42	2.98	0.750			
0.2786	17832.12	3.9490	3.9491	0.9828	27.41	2.97	0.750			
0.2816	18019.27	3.9460	3.9460	0.9839	27.41	2.97	0.750			
0.2845	18206.95	3.9430	3.9431	0.9942	27.41	2.97	0.750			
0.2874	18396.36	3.9400	3.9400	1.0031	27.42	2.98	0.750			
0.2905	18590.02	3.9370	3.9370	1.0176	27.42	2.98	0.750			
0.2936	18789.19	3.9340	3.9340	1.0307	27.42	2.98	0.750			
0.2967	18990.32	3.9310	3.9311	1.0427	27.42	2.98	0.750			
0.2999	19193.94	3.9280	3.9280	1.0455	27.43	2.99	0.750			
0.3030	19394.99	3.9250	3.9251	1.0438	27.43	2.99	0.750			
0.3062	19596.61	3.9220	3.9219	1.0334	27.43	2.99	0.750			
0.3092	19790.59	3.9190	3.9191	1.0345	27.44	3.00	0.750			
0.3123	19985.72	3.9160	3.9160	1.0429	27.44	3.00	0.750			
0.3154	20187.07	3.9130	3.9130	1.0509	27.45	3.01	0.750			
0.3186	20391.34	3.9100	3.9099	1.0538	27.45	3.01	0.750			
0.3218	20594.91	3.9070	3.9070	1.0607	27.45	3.01	0.750			
0.3250	20800.73	3.9040	3.9042	1.0697	27.46	3.02	0.750			
0.3282	21007.16	3.9010	3.9010	1.0832	27.46	3.02	0.750			
0.3315	21213.60	3.8980	3.8980	1.0811	27.46	3.02	0.750			
0.3347	21421.43	3.8950	3.8950	1.0819	27.47	3.03	0.750			
0.3380	21633.04	3.8920	3.8922	1.0899	27.48	3.04	0.750			
0.3413	21845.65	3.8890	3.8890	1.0946	27.49	3.05	0.750			
0.3446	22052.49	3.8860	3.8860	1.0948	27.49	3.05	0.750			
0.3478	22259.75	3.8830	3.8830	1.0979	27.50	3.06	0.750			
0.3511	22470.02	3.8800	3.8800	1.1071	27.51	3.07	0.750			
0.3545	22686.99	3.8770	3.8769	1.1140	27.52	3.08	0.750			
0.3578	22901.91	3.8740	3.8741	1.1272	27.53	3.09	0.750			
0.3612	23118.00	3.8710	3.8711	1.1401	27.55	3.11	0.750			
0.3647	23338.35	3.8680	3.8680	1.1524	27.57	3.13	0.750			
0.3681	23560.29	3.8650	3.8650	1.1550	27.58	3.14	0.750			
0.3716	23785.56	3.8620	3.8620	1.1623	27.60	3.16	0.750			
0.3752	24011.49	3.8590	3.8592	1.1685	27.61	3.17	0.750			
0.3787	24236.12	3.8560	3.8559	1.1710	27.62	3.18	0.750			
0.3822	24458.30	3.8530	3.8530	1.1674	27.64	3.20	0.750			
0.3856	24679.60	3.8500	3.8500	1.1745	27.64	3.20	0.750			
0.3891	24905.07	3.8470	3.8471	1.1944	27.65	3.21	0.750			
0.3928	25137.80	3.8440	3.8439	1.2033	27.66	3.22	0.750			
0.3964	25370.30	3.8410	3.8410	1.2312	27.67	3.23	0.750			
0.4001	25609.26	3.8380	3.8380	1.2511	27.68	3.24	0.750			
0.4039	25852.74	3.8350	3.8349	1.2643	27.69	3.25	0.750			
0.4078	26096.92	3.8320	3.8321	1.2894	27.69	3.25	0.750			
0.4116	26345.36	3.8290	3.8290	1.3025	27.68	3.24	0.750			
0.4156	26599.40	3.8260	3.8260	1.3127	27.68	3.24	0.750			
0.4196	26854.17	3.8230	3.8230	1.3359	27.68	3.24	0.750			
0.4236	27108.20	3.8200	3.8202	1.3556	27.68	3.24	0.750			
0.4277	27372.06	3.8170	3.8169	1.3715	27.69	3.25	0.750			
0.4318	27636.41	3.8140	3.8141	1.4017	27.69	3.25	0.750			
0.4360	27901.81	3.8110	3.8111	1.4283	27.69	3.25	0.750			
0.4403	28182.16	3.8080	3.8080	1.4628	27.68	3.24	0.750			
0.4448	28468.57	3.8050	3.8051	1.4970	27.67	3.23	0.750			
0.4493	28757.11	3.8020	3.8018	1.5306	27.66	3.22	0.750			
0.4540	29052.96	3.7990	3.7991	1.5711	27.65	3.21	0.750			
0.4588	29360.05	3.7960	3.7960	1.6118	27.64	3.20	0.750			
0.4637	29674.93	3.7930	3.7931	1.6372	27.64	3.20	0.750			
0.4686	29992.51	3.7900	3.7900	1.6559	27.62	3.18	0.750			
0.4737	30318.07	3.7870	3.7868	1.6959	27.60	3.16	0.750			
0.4788	30641.29	3.7840	3.7841	1.7312	27.58	3.14	0.750			
0.4840	30973.12	3.7810	3.7809	1.7749	27.56	3.12	0.750			
0.4894	31319.74	3.7780	3.7781	1.8181	27.54	3.10	0.750			
0.4949	31672.43	3.7750	3.7750	1.8590	27.52	3.08	0.750			
0.5006	32041.11	3.7720	3.7721	1.9018	27.50	3.06	0.750			
0.5065	32413.56	3.7690	3.7692	1.9453	27.47	3.03	0.750			
0.5124	32791.35	3.7660	3.7658	1.9760	27.44	3.00	0.750			
0.5183	33169.39	3.7630	3.7628	1.9898	27.42	2.98	0.750			
0.5242	33549.49	3.7600	3.7602	2.0403	27.38	2.94	0.750			
0.5303	33942.14	3.7570	3.7571	2.0921	27.34	2.90	0.750			
0.5367	34348.11	3.7540	3.7539	2.1818	27.31	2.87	0.750			
0.5433	34773.26	3.7510	3.7511	2.2269	27.28	2.84	0.750			
0.5502	35211.01	3.7480	3.7479	2.2896	27.23	2.79	0.750			
0.5572	35659.66	3.7450	3.7452	2.3723	27.19	2.75	0.750			
0.5643	36113.42	3.7420	3.7419	2.4412	27.15	2.71	0.750			
0.5717	36590.19	3.7390	3.7390	2.5257	27.10	2.66	0.750			
0.5794	37081.65	3.7360	3.7360	2.6017	27.04	2.60	0.750			
0.5874	37596.03	3.7330	3.7331	2.6999	27.00	2.56	0.750			
0.5955	38112.18	3.7300	3.7301	2.8255	26.95	2.51	0.750			
0.6042	38670.20	3.7270	3.7271	2.9023	26.89	2.45	0.750			
0.6131	39238.49	3.7240	3.7240	3.0164	26.81	2.37	0.750			
0.6224	39831.60	3.7210	3.7209	3.0921	26.73	2.29	0.750			
0.6317	40425.70	3.7180	3.7180	3.2172	26.64	2.20	0.750			
0.6414	41049.47	3.7150	3.7149	3.4636	26.55	2.11	0.750			
0.6521	41732.05	3.7120	3.7120	3.7803	26.43	1.99	0.750			
0.6641	42505.11	3.7090	3.7091	4.0248	26.29	1.85	0.750			
0.6766	43303.87	3.7060	3.7061	4.1208	26.14	1.70	0.750			
0.6888	44086.33	3.7030	3.7030	4.1804	25.98	1.54	0.750			
0.7017	44909.98	3.7000	3.7001	4.3849	25.81	1.37	0.750			
0.7151	45768.20	3.6970	3.6971	4.3905	25.64	1.20	0.750			
0.7282	46602.97	3.6940	3.6939	4.1972	25.48	1.04	0.750			
0.7403	47376.06	3.6910	3.6909	3.8939	25.35	0.91	0.750			
0.7519	48123.41	3.6880	3.6878	3.4947	25.23	0.79	0.750			
0.7615	48737.93	3.6850	3.6851	2.9547	25.14	0.70	0.750			
0.7691	49222.07	3.6820	3.6819	2.4222	25.07	0.63	0.750			
0.7755	49633.06	3.6790	3.6789	2.0264	25.01	0.57	0.750			
0.7807	49964.18	3.6760	3.6758	1.7082	24.96	0.52	0.750			
0.7852	50251.23	3.6730	3.6730	1.5087	24.92	0.48	0.750			
0.7892	50507.98	3.6700	3.6701	1.3714	24.88	0.44	0.750			
0.7929	50748.40	3.6670	3.6667	1.2634	24.84	0.40	0.750			
0.7965	50974.54	3.6640	3.6640	1.1809	24.81	0.37	0.750			
0.7999	51195.02	3.6610	3.6611	1.1317	24.77	0.33	0.750			
0.8033	51410.45	3.6580	3.6580	1.0935	24.74	0.30	0.750			
0.8065	51615.63	3.6550	3.6549	1.0425	24.71	0.27	0.750			
0.8095	51808.18	3.6520	3.6520	1.0006	24.68	0.24	0.750			
0.8125	51997.05	3.6490	3.6490	0.9638	24.65	0.21	0.750			
0.8153	52180.36	3.6460	3.6460	0.9293	24.62	0.18	0.750			
0.8181	52355.21	3.6430	3.6431	0.8896	24.60	0.16	0.750			
0.8207	52522.77	3.6400	3.6399	0.8415	24.57	0.13	0.750			
0.8232	52682.27	3.6370	3.6370	0.7894	24.55	0.11	0.750			
0.8255	52829.83	3.6340	3.6340	0.7338	24.52	0.08	0.750			
0.8276	52964.51	3.6310	3.6310	0.6786	24.49	0.05	0.750			
0.8295	53088.80	3.6280	3.6279	0.6265	24.47	0.03	0.750			
0.8313	53202.37	3.6250	3.6250	0.5753	24.45	0.01	0.750			
0.8329	53306.79	3.6220	3.6220	0.5268	24.44	-0.00	0.750			
0.8344	53404.25	3.6190	3.6191	0.4832	24.42	-0.02	0.750			
0.8358	53493.90	3.6160	3.6160	0.4405	24.41	-0.03	0.750			
0.8371	53573.15	3.6130	3.6129	0.3947	24.40	-0.04	0.750			
0.8382	53644.16	3.6100	3.6100	0.3512	24.39	-0.05	0.750			
0.8392	53706.23	3.6070	3.6070	0.3070	24.39	-0.05	0.750			
0.8400	53761.35	3.6040	3.6040	0.2664	24.38	-0.06	0.750			
0.8408	53808.58	3.6010	3.6009	0.2253	24.37	-0.07	0.750			
0.8414	53847.49	3.5980	3.5979	0.1850	24.37	-0.07	0.750			
0.8419	53879.30	3.5950	3.5952	0.1448	24.37	-0.07	0.750			
0.8422	53903.30	3.5920	3.5923	0.1063	24.36	-0.08	0.750			
